File: Feb25/CV02.11.25/2ndsecondelectrode-1.1CV_650_FLiNaK_Ni_02_11_25_200mVperS_sh15.csv
Segment,Point,Elapsed Time (s),Potential (V),Current (A),Frequency (Hz),|Z| (ohms),Zre (ohms),Zim (ohms),Phase of Z (deg),ActionId
0,0,0.00551,-0.00122653,-2.00991e-05,0,0,0,0,-0.002284039,38
0,49,0.2755,-0.0545934,-0.00062059,0,0,0,0,-0.002284039,38
0,98,0.54549,-0.108267,-0.000763085,0,0,0,0,-0.002284039,38
0,146,0.80997,-0.161941,-0.000929443,0,0,0,0,-0.002284039,38
0,195,1.07996,-0.215308,-0.0011115,0,0,0,0,-0.002284039,38
0,243,1.34444,-0.268981,-0.00129951,0,0,0,0,-0.002284039,38
0,291,1.60892,-0.321121,-0.00147912,0,0,0,0,-0.002284039,38
0,340,1.87891,-0.375102,-0.00165247,0,0,0,0,-0.002284039,38
0,389,2.1489,-0.429695,-0.00178785,0,0,0,0,-0.002284039,38
0,437,2.41338,-0.482142,-0.00189422,0,0,0,0,-0.002284039,38
0,486,2.68337,-0.536122,-0.0020077,0,0,0,0,-0.002284039,38
0,535,2.95336,-0.590103,-0.00212854,0,0,0,0,-0.002284039,38
0,584,3.22335,-0.644083,-0.00226901,0,0,0,0,-0.002284039,38
0,632,3.48783,-0.69653,-0.0024561,0,0,0,0,-0.002284039,38
0,681,3.75782,-0.750817,-0.00270638,0,0,0,0,-0.002284039,38
0,730,4.02781,-0.805104,-0.00297321,0,0,0,0,-0.002284039,38
0,778,4.29229,-0.857551,-0.00313822,0,0,0,0,-0.002284039,38
0,827,4.56228,-0.911531,-0.00329955,0,0,0,0,-0.002284039,38
0,875,4.82676,-0.964591,-0.00348418,0,0,0,0,-0.002284039,38
0,924,5.09675,-1.01888,-0.00364551,0,0,0,0,-0.002284039,38
0,973,5.36674,-1.07255,-0.0037504,0,0,0,0,-0.002284039,38
1,1021,5.829374,-1.0382,-0.00308362,0,0,0,0,-0.002284039,38
1,1069,6.52619,-0.898343,-0.00231195,0,0,0,0,-0.002284039,38
1,1117,7.223006,-0.759711,-0.00138441,0,0,0,0,-0.002284039,38
1,1166,7.934339,-0.617093,-0.000824856,0,0,0,0,-0.002284039,38
1,1214,8.631155,-0.478462,-0.000627828,0,0,0,0,-0.002284039,38
1,1262,9.327971,-0.338297,-9.43061e-05,0,0,0,0,-0.002284039,38
1,1310,10.0248,-0.199666,0.000292843,0,0,0,0,-0.002284039,38
1,1359,10.73612,-0.0576605,0.000654941,0,0,0,0,-0.002284039,38
1,1407,11.4329,0.0812775,0.00424788,0,0,0,0,-0.002284039,38
1,1455,12.1298,0.220215,0.00872396,0,0,0,0,-0.002284039,38
1,1504,12.8411,0.362527,0.00656536,0,0,0,0,-0.002284039,38
1,1552,13.5379,0.501772,0.00830254,0,0,0,0,-0.002284039,38
1,1600,14.2347,0.641017,0.00840437,0,0,0,0,-0.002284039,38
1,1648,14.9315,0.780261,0.00880861,0,0,0,0,-0.002284039,38
1,1696,15.6283,0.919199,0.0125388,0,0,0,0,-0.002284039,38
1,1744,16.3252,1.05814,0.0174614,0,0,0,0,-0.002284039,38
1,1792,17.022,1.19309,0.0324189,0,0,0,0,-0.002284039,38
1,1841,17.7333,1.33111,0.0615069,0,0,0,0,-0.002284039,38
1,1889,18.43013,1.46636,0.0859268,0,0,0,0,-0.002284039,38
1,1937,19.1269,1.6142,0.0349891,0,0,0,0,-0.002284039,38
1,1985,19.8238,1.74424,0.0889694,0,0,0,0,-0.002284039,38
1,2034,20.5351,1.68412,0.0738426,0,0,0,0,-0.002284039,38
1,2082,21.2319,1.55285,0.0319833,0,0,0,0,-0.002284039,38
1,2130,21.9287,1.42373,-0.0323821,0,0,0,0,-0.002284039,38
1,2178,22.6255,1.29399,-0.0905458,0,0,0,0,-0.002284039,38
1,2226,23.3224,1.14586,-0.0372832,0,0,0,0,-0.002284039,38
1,2274,24.0192,1.00324,-0.0146728,0,0,0,0,-0.002284039,38
1,2323,24.7305,0.858471,-0.00691193,0,0,0,0,-0.002284039,38
1,2371,25.4273,0.719227,-0.00335843,0,0,0,0,-0.002284039,38
1,2419,26.12414,0.579369,-0.00180773,0,0,0,0,-0.002284039,38
1,2467,26.821,0.440124,-0.00165057,0,0,0,0,-0.002284039,38
1,2516,27.5323,0.298119,-0.00157279,0,0,0,0,-0.002284039,38
1,2564,28.2291,0.158567,-0.00161131,0,0,0,0,-0.002284039,38
1,2612,28.9259,0.0190161,-0.00178123,0,0,0,0,-0.002284039,38
1,2660,29.6227,-0.119615,-0.0021267,0,0,0,0,-0.002284039,38
1,2709,30.33407,-0.261927,-0.00252358,0,0,0,0,-0.002284039,38
1,2757,31.0309,-0.401172,-0.00298364,0,0,0,0,-0.002284039,38
1,2805,31.7277,-0.54103,-0.00357681,0,0,0,0,-0.002284039,38
1,2853,32.4245,-0.679968,-0.00420862,0,0,0,0,-0.002284039,38
1,2901,33.1213,-0.818906,-0.00528516,0,0,0,0,-0.002284039,38
1,2949,33.81815,-0.957844,-0.00754988,0,0,0,0,-0.002284039,38
1,2997,34.515,-1.09678,-0.0133951,0,0,0,0,-0.002284039,38
2,3046,35.2263,-0.963364,-0.0067138,0,0,0,0,-0.002284039,38
2,3094,35.9231,-0.823506,-0.00381359,0,0,0,0,-0.002284039,38
2,3142,36.6199,-0.684875,-0.00278551,0,0,0,0,-0.002284039,38
2,3191,37.3313,-0.54287,-0.00193164,0,0,0,0,-0.002284039,38
2,3239,38.02808,-0.403319,-0.00105084,0,0,0,0,-0.002284039,38
2,3287,38.7249,-0.264074,-0.000457115,0,0,0,0,-0.002284039,38
2,3335,39.4217,-0.125443,0.000543974,0,0,0,0,-0.002284039,38
2,3383,40.1185,0.0141088,0.000801853,0,0,0,0,-0.002284039,38
2,3431,40.8153,0.153353,0.00139331,0,0,0,0,-0.002284039,38
2,3479,41.51216,0.292598,0.00186784,0,0,0,0,-0.002284039,38
2,3528,42.2235,0.435217,0.00253524,0,0,0,0,-0.002284039,38
2,3576,42.9203,0.573848,0.00567345,0,0,0,0,-0.002284039,38
2,3624,43.6171,0.712786,0.00706406,0,0,0,0,-0.002284039,38
2,3672,44.3139,0.852031,0.010609,0,0,0,0,-0.002284039,38
2,3721,45.0253,0.993115,0.0148237,0,0,0,0,-0.002284039,38
2,3769,45.72209,1.13297,0.0156543,0,0,0,0,-0.002284039,38
2,3817,46.4189,1.27252,0.0159248,0,0,0,0,-0.002284039,38
2,3866,47.1302,1.4133,0.0181288,0,0,0,0,-0.002284039,38
2,3914,47.8271,1.54917,0.0409208,0,0,0,0,-0.002284039,38
2,3962,48.5239,1.68167,0.0750572,0,0,0,0,-0.002284039,38
2,4010,49.2207,1.74976,0.0862029,0,0,0,0,-0.002284039,38
2,4058,49.9175,1.62156,0.0219847,0,0,0,0,-0.002284039,38
2,4106,50.6143,1.4909,-0.0312166,0,0,0,0,-0.002284039,38
2,4154,51.3111,1.35166,-0.0281986,0,0,0,0,-0.002284039,38
2,4203,52.0225,1.20474,-0.00819949,0,0,0,0,-0.002284039,38
2,4251,52.7193,1.0658,-0.00252235,0,0,0,0,-0.002284039,38
2,4299,53.4161,0.925947,3.11184e-05,0,0,0,0,-0.002284039,38
2,4347,54.1129,0.786395,-0.000498582,0,0,0,0,-0.002284039,38
2,4396,54.8242,0.64439,-0.000250763,0,0,0,0,-0.002284039,38
2,4444,55.5211,0.504532,-0.000196476,0,0,0,0,-0.002284039,38
2,4492,56.2179,0.365594,-0.000327317,0,0,0,0,-0.002284039,38
2,4540,56.9147,0.22635,-0.00063844,0,0,0,0,-0.002284039,38
2,4588,57.6115,0.0874116,-0.00113377,0,0,0,0,-0.002284039,38
2,4636,58.3083,-0.0527532,-0.00180386,0,0,0,0,-0.002284039,38
2,4685,59.0197,-0.194452,-0.0023917,0,0,0,0,-0.002284039,38
2,4733,59.7165,-0.334003,-0.00290083,0,0,0,0,-0.002284039,38
2,4781,60.4133,-0.472941,-0.00339217,0,0,0,0,-0.002284039,38
2,4829,61.11011,-0.612186,-0.00403196,0,0,0,0,-0.002284039,38
2,4878,61.8214,-0.754497,-0.00475579,0,0,0,0,-0.002284039,38
2,4926,62.5183,-0.893435,-0.00608689,0,0,0,0,-0.002284039,38
2,4974,63.2151,-1.03207,-0.00930792,0,0,0,0,-0.002284039,38
3,5022,63.9119,-1.03023,-0.00936313,0,0,0,0,-0.002284039,38
3,5071,64.6232,-0.888835,-0.00497232,0,0,0,0,-0.002284039,38
3,5119,65.32004,-0.749283,-0.00345719,0,0,0,0,-0.002284039,38
3,5167,66.0169,-0.610652,-0.00257204,0,0,0,0,-0.002284039,38
3,5215,66.7137,-0.471101,-0.0015685,0,0,0,0,-0.002284039,38
3,5263,67.4105,-0.332163,-0.000712785,0,0,0,0,-0.002284039,38
3,5311,68.1073,-0.192611,0.000354491,0,0,0,0,-0.002284039,38
3,5359,68.80412,-0.0536733,0.000943613,0,0,0,0,-0.002284039,38
3,5408,69.5155,0.0889451,0.0012954,0,0,0,0,-0.002284039,38
3,5456,70.2123,0.227883,0.00191323,0,0,0,0,-0.002284039,38
3,5504,70.9091,0.367128,0.00239599,0,0,0,0,-0.002284039,38
3,5553,71.6204,0.509133,0.00357865,0,0,0,0,-0.002284039,38
3,5601,72.3172,0.647764,0.00582435,0,0,0,0,-0.002284039,38
3,5649,73.01405,0.787622,0.00795596,0,0,0,0,-0.002284039,38
3,5697,73.7109,0.926253,0.0124087,0,0,0,0,-0.002284039,38
3,5745,74.4077,1.06488,0.0148391,0,0,0,0,-0.002284039,38
3,5793,75.1045,1.20413,0.0162419,0,0,0,0,-0.002284039,38
3,5841,75.8013,1.34368,0.0162266,0,0,0,0,-0.002284039,38
3,5890,76.5126,1.48354,0.0248923,0,0,0,0,-0.002284039,38
3,5938,77.2095,1.61757,0.0561886,0,0,0,0,-0.002284039,38
3,5986,77.9063,1.75007,0.0962015,0,0,0,0,-0.002284039,38
3,6034,78.6031,1.68382,0.0514408,0,0,0,0,-0.002284039,38
3,6083,79.3144,1.55101,-0.00423623,0,0,0,0,-0.002284039,38
3,6131,80.0112,1.41821,-0.0398841,0,0,0,0,-0.002284039,38
3,6179,80.70806,1.27437,-0.0138938,0,0,0,0,-0.002284039,38
3,6228,81.4194,1.13021,-0.00432824,0,0,0,0,-0.002284039,38
3,6276,82.1162,0.990662,-0.000724318,0,0,0,0,-0.002284039,38
3,6324,82.813,0.85111,0.000309405,0,0,0,0,-0.002284039,38
3,6372,83.5098,0.711866,-0.00027806,0,0,0,0,-0.002284039,38
3,6420,84.2067,0.572314,2.58431e-05,0,0,0,0,-0.002284039,38
3,6468,84.9035,0.433376,-0.000118419,0,0,0,0,-0.002284039,38
3,6516,85.6003,0.294132,-0.000456134,0,0,0,0,-0.002284039,38
3,6565,86.3116,0.152127,-0.000913433,0,0,0,0,-0.002284039,38
3,6613,87.0084,0.0125753,-0.00155825,0,0,0,0,-0.002284039,38
3,6661,87.7053,-0.126669,-0.00223221,0,0,0,0,-0.002284039,38
3,6709,88.40207,-0.265914,-0.00281924,0,0,0,0,-0.002284039,38
3,6758,89.1134,-0.407919,-0.00334801,0,0,0,0,-0.002284039,38
3,6806,89.8102,-0.547471,-0.00389394,0,0,0,0,-0.002284039,38
3,6854,90.507,-0.686102,-0.0045736,0,0,0,0,-0.002284039,38
3,6902,91.2039,-0.82596,-0.00547164,0,0,0,0,-0.002284039,38
3,6950,91.9007,-0.964898,-0.00743027,0,0,0,0,-0.002284039,38
4,6998,92.5834,-1.09065,-0.0120014,0,0,0,0,-0.002284039,38
4,7046,92.9422,-1.01918,-0.00879695,0,0,0,0,-0.002284039,38
4,7095,93.3085,-0.945882,-0.00627153,0,0,0,0,-0.002284039,38
4,7143,93.6673,-0.874113,-0.00483001,0,0,0,0,-0.002284039,38
4,7191,94.0261,-0.80265,-0.00400865,0,0,0,0,-0.002284039,38
4,7239,94.3849,-0.731188,-0.00348541,0,0,0,0,-0.002284039,38
4,7288,94.7511,-0.657885,-0.00301063,0,0,0,0,-0.002284039,38
4,7337,95.1174,-0.584889,-0.00252726,0,0,0,0,-0.002284039,38
4,7385,95.4762,-0.512813,-0.00198378,0,0,0,0,-0.002284039,38
4,7434,95.8425,-0.440123,-0.00145256,0,0,0,0,-0.002284039,38
4,7483,96.2088,-0.366514,-0.000926989,0,0,0,0,-0.002284039,38
4,7532,96.575,-0.293518,-0.000622123,0,0,0,0,-0.002284039,38
4,7581,96.9488,-0.218988,0.000135294,0,0,0,0,-0.002284039,38
4,7629,97.3076,-0.146912,0.000608137,0,0,0,0,-0.002284039,38
4,7678,97.6739,-0.0739159,0.000936436,0,0,0,0,-0.002284039,38
4,7726,98.0327,-0.00245336,0.000931345,0,0,0,0,-0.002284039,38
4,7775,98.3989,0.0708495,0.00120364,0,0,0,0,-0.002284039,38
4,7824,98.7652,0.144152,0.0015861,0,0,0,0,-0.002284039,38
4,7872,99.124,0.215922,0.00189974,0,0,0,0,-0.002284039,38
4,7921,99.4903,0.288918,0.00219234,0,0,0,0,-0.002284039,38
4,7969,99.8491,0.360687,0.00243709,0,0,0,0,-0.002284039,38
4,7995,100.043,0.399945,0.0026113,0,0,0,0,-0.002284039,38