File: Feb25/CV02.11.25/scan1650secondelectrode-1.108CV_650_FLiNaK_Ni_02_11_25_200mVperS_sh15.csv
Segment,Point,Elapsed Time (s),Potential (V),Current (A),Frequency (Hz),|Z| (ohms),Zre (ohms),Zim (ohms),Phase of Z (deg),ActionId
0,0,0.0058,-0.000613119,-0.000456747,0,0,0,0,-0.002284039,38
0,32,0.1914,-0.0380313,-0.00212057,0,0,0,0,-0.002284039,38
0,64,0.377,-0.0751428,-0.00335598,0,0,0,0,-0.002284039,38
0,97,0.5684,-0.112868,-0.00446196,0,0,0,0,-0.002284039,38
0,129,0.754,-0.149979,-0.00545201,0,0,0,0,-0.002284039,38
0,161,0.9396,-0.187091,-0.00640157,0,0,0,0,-0.002284039,38
0,194,1.131,-0.225122,-0.00734991,0,0,0,0,-0.002284039,38
0,226,1.3166,-0.261927,-0.00825715,0,0,0,0,-0.002284039,38
0,258,1.5022,-0.299345,-0.00915702,0,0,0,0,-0.002284039,38
0,291,1.6936,-0.33707,-0.0100575,0,0,0,0,-0.002284039,38
0,323,1.8792,-0.373875,-0.0109237,0,0,0,0,-0.002284039,38
0,355,2.0648,-0.410986,-0.011761,0,0,0,0,-0.002284039,38
0,388,2.2562,-0.449631,-0.0125866,0,0,0,0,-0.002284039,38
0,420,2.4418,-0.486129,-0.0133656,0,0,0,0,-0.002284039,38
0,452,2.6274,-0.523547,-0.01413,0,0,0,0,-0.002284039,38
0,485,2.8188,-0.561579,-0.0149213,0,0,0,0,-0.002284039,38
0,517,3.0044,-0.598691,-0.0157003,0,0,0,0,-0.002284039,38
0,549,3.19,-0.635189,-0.0164468,0,0,0,0,-0.002284039,38
0,581,3.3756,-0.672913,-0.0172301,0,0,0,0,-0.002284039,38
0,614,3.567,-0.710638,-0.0180822,0,0,0,0,-0.002284039,38
0,647,3.7584,-0.747443,-0.0189299,0,0,0,0,-0.002284039,38
0,679,3.944,-0.785168,-0.0198132,0,0,0,0,-0.002284039,38
0,712,4.1354,-0.822893,-0.020672,0,0,0,0,-0.002284039,38
0,744,4.321,-0.859698,-0.0215001,0,0,0,0,-0.002284039,38
0,777,4.5124,-0.898343,-0.0223528,0,0,0,0,-0.002284039,38
0,809,4.698,-0.934841,-0.0232054,0,0,0,0,-0.002284039,38
0,841,4.8836,-0.971032,-0.024009,0,0,0,0,-0.002284039,38
0,874,5.075,-1.00968,-0.0248125,0,0,0,0,-0.002284039,38
0,906,5.2606,-1.04679,-0.0256222,0,0,0,0,-0.002284039,38
0,938,5.4462,-1.08359,-0.0264197,0,0,0,0,-0.002284039,38
0,971,5.6376,-1.12224,-0.0272662,0,0,0,0,-0.002284039,38
1,1004,5.874035,-1.14064,-0.026935,0,0,0,0,-0.002284039,38
1,1036,6.347859,-1.04648,-0.0241685,0,0,0,0,-0.002284039,38
1,1068,6.821683,-0.952016,-0.0217087,0,0,0,0,-0.002284039,38
1,1100,7.295507,-0.857857,-0.0193532,0,0,0,0,-0.002284039,38
1,1132,7.769331,-0.763699,-0.0168566,0,0,0,0,-0.002284039,38
1,1164,8.243155,-0.669233,-0.0148016,0,0,0,0,-0.002284039,38
1,1196,8.716979,-0.575688,-0.01264,0,0,0,0,-0.002284039,38
1,1228,9.190803,-0.481222,-0.0105476,0,0,0,0,-0.002284039,38
1,1260,9.664627,-0.387063,-0.00829027,0,0,0,0,-0.002284039,38
1,1292,10.1385,-0.292291,-0.00606052,0,0,0,0,-0.002284039,38
1,1324,10.6123,-0.197825,-0.00387922,0,0,0,0,-0.002284039,38
1,1356,11.0861,-0.10336,-0.00180221,0,0,0,0,-0.002284039,38
1,1388,11.5599,-0.0092009,0.000596237,0,0,0,0,-0.002284039,38
1,1420,12.0337,0.0855714,0.00525327,0,0,0,0,-0.002284039,38
1,1452,12.5076,0.179117,0.0164364,0,0,0,0,-0.002284039,38
1,1484,12.9814,0.271742,0.0196599,0,0,0,0,-0.002284039,38
1,1516,13.4552,0.365901,0.0225368,0,0,0,0,-0.002284039,38
1,1548,13.929,0.460367,0.0283642,0,0,0,0,-0.002284039,38
1,1580,14.4029,0.553605,0.0340505,0,0,0,0,-0.002284039,38
1,1612,14.8767,0.648071,0.0377249,0,0,0,0,-0.002284039,38
1,1644,15.3505,0.742536,0.0387738,0,0,0,0,-0.002284039,38
1,1676,15.8243,0.836695,0.0402337,0,0,0,0,-0.002284039,38
1,1708,16.2982,0.930854,0.0458833,0,0,0,0,-0.002284039,38
1,1740,16.772,1.02287,0.0617523,0,0,0,0,-0.002284039,38
1,1772,17.2458,1.11396,0.0829211,0,0,0,0,-0.002284039,38
1,1804,17.7196,1.20444,0.107629,0,0,0,0,-0.002284039,38
1,1836,18.1935,1.29553,0.128504,0,0,0,0,-0.002284039,38
1,1868,18.6673,1.40196,0.0590778,0,0,0,0,-0.002284039,38
1,1900,19.1411,1.48906,0.103354,0,0,0,0,-0.002284039,38
1,1932,19.6149,1.58138,0.118947,0,0,0,0,-0.002284039,38
1,1964,20.0888,1.67646,0.118076,0,0,0,0,-0.002284039,38
1,1996,20.5626,1.77215,0.112003,0,0,0,0,-0.002284039,38
1,2028,21.0364,1.69302,0.113592,0,0,0,0,-0.002284039,38
1,2060,21.5102,1.60101,0.10041,0,0,0,0,-0.002284039,38
1,2092,21.9841,1.50317,0.118996,0,0,0,0,-0.002284039,38
1,2124,22.4579,1.41576,0.0739162,0,0,0,0,-0.002284039,38
1,2156,22.9317,1.3219,0.0675183,0,0,0,0,-0.002284039,38
1,2188,23.4055,1.23265,0.0375163,0,0,0,0,-0.002284039,38
1,2220,23.8793,1.14463,-0.00151188,0,0,0,0,-0.002284039,38
1,2252,24.3532,1.05538,-0.0358785,0,0,0,0,-0.002284039,38
1,2284,24.827,0.966125,-0.0665675,0,0,0,0,-0.002284039,38
1,2316,25.3008,0.871046,-0.0669601,0,0,0,0,-0.002284039,38
1,2348,25.7746,0.778421,-0.0756399,0,0,0,0,-0.002284039,38
1,2380,26.2485,0.672607,-0.0130129,0,0,0,0,-0.002284039,38
1,2412,26.7223,0.575688,-0.000596912,0,0,0,0,-0.002284039,38
1,2444,27.1961,0.481223,0.002561,0,0,0,0,-0.002284039,38
1,2476,27.6699,0.386144,0.0033155,0,0,0,0,-0.002284039,38
1,2508,28.1438,0.291678,0.00352406,0,0,0,0,-0.002284039,38
1,2540,28.6176,0.196906,0.00277937,0,0,0,0,-0.002284039,38
1,2572,29.0914,0.102134,0.00131338,0,0,0,0,-0.002284039,38
1,2604,29.5652,0.00797466,-0.000770017,0,0,0,0,-0.002284039,38
1,2636,30.0391,-0.0871043,-0.00392891,0,0,0,0,-0.002284039,38
1,2668,30.5129,-0.17973,-0.0155574,0,0,0,0,-0.002284039,38
1,2700,30.9867,-0.274809,-0.0165897,0,0,0,0,-0.002284039,38
1,2732,31.4605,-0.367741,-0.0205677,0,0,0,0,-0.002284039,38
1,2764,31.9344,-0.461593,-0.0238495,0,0,0,0,-0.002284039,38
1,2796,32.4082,-0.556365,-0.0260884,0,0,0,0,-0.002284039,38
1,2828,32.882,-0.650217,-0.0280698,0,0,0,0,-0.002284039,38
1,2860,33.3558,-0.744683,-0.0299468,0,0,0,0,-0.002284039,38
1,2892,33.8297,-0.839762,-0.03183,0,0,0,0,-0.002284039,38
1,2924,34.3035,-0.933921,-0.0338174,0,0,0,0,-0.002284039,38
1,2956,34.7773,-1.02777,-0.0361177,0,0,0,0,-0.002284039,38
1,2988,35.2511,-1.12224,-0.0388597,0,0,0,0,-0.002284039,38
2,3020,35.7249,-1.09065,-0.0353326,0,0,0,0,-0.002284039,38
2,3052,36.1988,-0.996795,-0.0314987,0,0,0,0,-0.002284039,38
2,3084,36.6726,-0.902023,-0.0283151,0,0,0,0,-0.002284039,38
2,3116,37.1464,-0.807864,-0.0252726,0,0,0,0,-0.002284039,38
2,3148,37.6202,-0.714012,-0.0221749,0,0,0,0,-0.002284039,38
2,3180,38.0941,-0.618933,-0.0189422,0,0,0,0,-0.002284039,38
2,3212,38.5679,-0.525081,-0.0157708,0,0,0,0,-0.002284039,38
2,3244,39.0417,-0.431536,-0.0127099,0,0,0,0,-0.002284039,38
2,3276,39.5155,-0.33707,-0.00949808,0,0,0,0,-0.002284039,38
2,3308,39.9894,-0.243218,-0.00490117,0,0,0,0,-0.002284039,38
2,3340,40.4632,-0.149059,-0.00124339,0,0,0,0,-0.002284039,38
2,3372,40.937,-0.0545934,0.00198071,0,0,0,0,-0.002284039,38
2,3404,41.4108,0.0401788,0.00504164,0,0,0,0,-0.002284039,38
2,3436,41.8847,0.134338,0.00807313,0,0,0,0,-0.002284039,38
2,3468,42.3585,0.228803,0.0109641,0,0,0,0,-0.002284039,38
2,3500,42.8323,0.323269,0.0138625,0,0,0,0,-0.002284039,38
2,3532,43.3061,0.417428,0.0169296,0,0,0,0,-0.002284039,38
2,3564,43.78,0.510666,0.0201567,0,0,0,0,-0.002284039,38
2,3596,44.2538,0.604518,0.0238556,0,0,0,0,-0.002284039,38
2,3628,44.7276,0.698677,0.028217,0,0,0,0,-0.002284039,38
2,3660,45.2014,0.792529,0.033431,0,0,0,0,-0.002284039,38
2,3692,45.6753,0.886382,0.0402644,0,0,0,0,-0.002284039,38
2,3724,46.1491,0.979007,0.0499011,0,0,0,0,-0.002284039,38
2,3756,46.6229,1.07102,0.0648929,0,0,0,0,-0.002284039,38
2,3788,47.0967,1.16242,0.0838596,0,0,0,0,-0.002284039,38
2,3820,47.5705,1.25412,0.105446,0,0,0,0,-0.002284039,38
2,3852,48.0444,1.34491,0.126976,0,0,0,0,-0.002284039,38
2,3884,48.5182,1.436,0.147109,0,0,0,0,-0.002284039,38
2,3916,48.992,1.54795,0.0475027,0,0,0,0,-0.002284039,38
2,3948,49.4658,1.63536,0.0900428,0,0,0,0,-0.002284039,38
2,3980,49.9397,1.724,0.124872,0,0,0,0,-0.002284039,38
2,4012,50.4135,1.73596,0.133356,0,0,0,0,-0.002284039,38
2,4044,50.8873,1.64364,0.118879,0,0,0,0,-0.002284039,38
2,4076,51.3611,1.54948,0.11672,0,0,0,0,-0.002284039,38
2,4108,51.835,1.45962,0.0856815,0,0,0,0,-0.002284039,38
2,4140,52.3088,1.36975,0.0593293,0,0,0,0,-0.002284039,38
2,4172,52.7826,1.28203,0.0205493,0,0,0,0,-0.002284039,38
2,4204,53.2564,1.19125,-0.0134129,0,0,0,0,-0.002284039,38
2,4236,53.7303,1.10414,-0.0508703,0,0,0,0,-0.002284039,38
2,4268,54.2041,1.01244,-0.0678618,0,0,0,0,-0.002284039,38
2,4300,54.6779,0.909691,-0.0187582,0,0,0,0,-0.002284039,38
2,4332,55.1517,0.810625,0.00102182,0,0,0,0,-0.002284039,38
2,4364,55.6256,0.715853,0.00487479,0,0,0,0,-0.002284039,38
2,4396,56.0994,0.620161,0.00646292,0,0,0,0,-0.002284039,38
2,4428,56.5732,0.526308,0.0069242,0,0,0,0,-0.002284039,38
2,4460,57.047,0.431536,0.00683403,0,0,0,0,-0.002284039,38
2,4492,57.5209,0.336457,0.00606236,0,0,0,0,-0.002284039,38
2,4524,57.9947,0.242605,0.00464721,0,0,0,0,-0.002284039,38
2,4556,58.4685,0.147833,0.00286648,0,0,0,0,-0.002284039,38
2,4588,58.9423,0.0536739,0.000605561,0,0,0,0,-0.002284039,38
2,4620,59.4161,-0.0407916,-0.00245365,0,0,0,0,-0.002284039,38
2,4652,59.89,-0.135257,-0.00627582,0,0,0,0,-0.002284039,38
2,4684,60.3638,-0.229416,-0.0125013,0,0,0,0,-0.002284039,38
2,4716,60.8376,-0.321428,-0.0215737,0,0,0,0,-0.002284039,38
2,4748,61.3114,-0.41712,-0.0194697,0,0,0,0,-0.002284039,38
2,4780,61.7853,-0.510972,-0.023874,0,0,0,0,-0.002284039,38
2,4812,62.2591,-0.605131,-0.0275238,0,0,0,0,-0.002284039,38
2,4844,62.7329,-0.698983,-0.0295788,0,0,0,0,-0.002284039,38
2,4876,63.2067,-0.793142,-0.0316398,0,0,0,0,-0.002284039,38
2,4908,63.6806,-0.887915,-0.0341855,0,0,0,0,-0.002284039,38
2,4940,64.1544,-0.98238,-0.037363,0,0,0,0,-0.002284039,38
2,4972,64.6282,-1.07593,-0.0416446,0,0,0,0,-0.002284039,38
3,5004,65.102,-1.13481,-0.043583,0,0,0,0,-0.002284039,38
3,5036,65.5759,-1.04127,-0.0367312,0,0,0,0,-0.002284039,38
3,5068,66.0497,-0.947416,-0.0323821,0,0,0,0,-0.002284039,38
3,5100,66.5235,-0.853563,-0.0291923,0,0,0,0,-0.002284039,38
3,5132,66.9973,-0.758484,-0.0262663,0,0,0,0,-0.002284039,38
3,5164,67.4712,-0.664632,-0.0232483,0,0,0,0,-0.002284039,38
3,5196,67.945,-0.570167,-0.0200157,0,0,0,0,-0.002284039,38
3,5228,68.4188,-0.476315,-0.0166726,0,0,0,0,-0.002284039,38
3,5260,68.8926,-0.383076,-0.0127387,0,0,0,0,-0.002284039,38
3,5292,69.3665,-0.288304,-0.00745296,0,0,0,0,-0.002284039,38
3,5324,69.8403,-0.194758,-0.00300143,0,0,0,0,-0.002284039,38
3,5356,70.3141,-0.099986,0.00102317,0,0,0,0,-0.002284039,38
3,5384,70.7287,-0.0180954,0.00389026,0,0,0,0,-0.002284039,38