File: Feb25/CV02.11.25/secondelectrode-1.18CV_650_FLiNaK_Ni_02_11_25_200mVperS_sh15.csv
Segment,Point,Elapsed Time (s),Potential (V),Current (A),Frequency (Hz),|Z| (ohms),Zre (ohms),Zim (ohms),Phase of Z (deg),ActionId
0,0,0.0059,-0.000613119,-0.000136957,0,0,0,0,-0.002284039,38
0,50,0.3009,-0.0601141,-0.000663283,0,0,0,0,-0.002284039,38
0,98,0.5841,-0.116855,-0.000918095,0,0,0,0,-0.002284039,38
0,147,0.8732,-0.174209,-0.00117524,0,0,0,0,-0.002284039,38
0,195,1.1564,-0.230643,-0.00142766,0,0,0,0,-0.002284039,38
0,244,1.4455,-0.287997,-0.00166094,0,0,0,0,-0.002284039,38
0,292,1.7346,-0.346271,-0.0018887,0,0,0,0,-0.002284039,38
0,340,2.0178,-0.403319,-0.00210094,0,0,0,0,-0.002284039,38
0,389,2.3069,-0.460673,-0.00229232,0,0,0,0,-0.002284039,38
0,437,2.5901,-0.517413,-0.00247451,0,0,0,0,-0.002284039,38
0,486,2.8792,-0.575381,-0.00266896,0,0,0,0,-0.002284039,38
0,534,3.1624,-0.632121,-0.00288979,0,0,0,0,-0.002284039,38
0,583,3.4515,-0.689782,-0.00317073,0,0,0,0,-0.002284039,38
0,632,3.7406,-0.747443,-0.00349216,0,0,0,0,-0.002284039,38
0,680,4.0238,-0.803877,-0.00379948,0,0,0,0,-0.002284039,38
0,729,4.3129,-0.861845,-0.00402767,0,0,0,0,-0.002284039,38
0,777,4.5961,-0.917972,-0.00424113,0,0,0,0,-0.002284039,38
0,826,4.8852,-0.976553,-0.00444785,0,0,0,0,-0.002284039,38
0,874,5.1684,-1.03237,-0.00461348,0,0,0,0,-0.002284039,38
0,922,5.4516,-1.08911,-0.00475701,0,0,0,0,-0.002284039,38
0,971,5.7407,-1.14739,-0.00495944,0,0,0,0,-0.002284039,38
1,1019,6.213047,-1.11733,-0.00422887,0,0,0,0,-0.002284039,38
1,1067,6.928583,-0.974712,-0.00334003,0,0,0,0,-0.002284039,38
1,1115,7.644119,-0.831481,-0.00246101,0,0,0,0,-0.002284039,38
1,1163,8.359655,-0.688555,-0.00146422,0,0,0,0,-0.002284039,38
1,1211,9.075191,-0.545324,-0.000930854,0,0,0,0,-0.002284039,38
1,1259,9.790727,-0.402398,-0.0004811,0,0,0,0,-0.002284039,38
1,1307,10.5063,-0.259167,0.000158334,0,0,0,0,-0.002284039,38
1,1355,11.2218,-0.116241,0.00066678,0,0,0,0,-0.002284039,38
1,1403,11.9373,0.026377,0.00171547,0,0,0,0,-0.002284039,38
1,1453,12.6827,0.174516,0.00812342,0,0,0,0,-0.002284039,38
1,1501,13.3982,0.318361,0.00602862,0,0,0,0,-0.002284039,38
1,1549,14.1138,0.461287,0.00876321,0,0,0,0,-0.002284039,38
1,1597,14.8293,0.603598,0.00980847,0,0,0,0,-0.002284039,38
1,1645,15.5448,0.74683,0.010133,0,0,0,0,-0.002284039,38
1,1693,16.2604,0.889449,0.0137202,0,0,0,0,-0.002284039,38
1,1741,16.9759,1.02992,0.0230152,0,0,0,0,-0.002284039,38
1,1789,17.6914,1.16947,0.0441473,0,0,0,0,-0.002284039,38
1,1839,18.4368,1.31301,0.0789585,0,0,0,0,-0.002284039,38
1,1887,19.1523,1.45164,0.101698,0,0,0,0,-0.002284039,38
1,1935,19.8679,1.60101,0.065261,0,0,0,0,-0.002284039,38
1,1983,20.5834,1.73995,0.0902146,0,0,0,0,-0.002284039,38
1,2031,21.2989,1.68228,0.104059,0,0,0,0,-0.002284039,38
1,2079,22.0145,1.54611,0.0623779,0,0,0,0,-0.002284039,38
1,2127,22.73,1.41085,0.0183901,0,0,0,0,-0.002284039,38
1,2175,23.4455,1.27743,-0.038326,0,0,0,0,-0.002284039,38
1,2223,24.1611,1.14494,-0.0995876,0,0,0,0,-0.002284039,38
1,2273,24.9064,0.990968,-0.0724931,0,0,0,0,-0.002284039,38
1,2321,25.622,0.839149,-0.0198991,0,0,0,0,-0.002284039,38
1,2369,26.3375,0.69377,-0.00905152,0,0,0,0,-0.002284039,38
1,2417,27.053,0.549925,-0.00501158,0,0,0,0,-0.002284039,38
1,2465,27.7686,0.407,-0.00263829,0,0,0,0,-0.002284039,38
1,2513,28.4841,0.263461,-0.00167155,0,0,0,0,-0.002284039,38
1,2561,29.1996,0.120843,-0.00155132,0,0,0,0,-0.002284039,38
1,2609,29.9152,-0.0223893,-0.00206597,0,0,0,0,-0.002284039,38
1,2657,30.6307,-0.165621,-0.00350013,0,0,0,0,-0.002284039,38
1,2707,31.3761,-0.31468,-0.00408778,0,0,0,0,-0.002284039,38
1,2755,32.0916,-0.456685,-0.00471714,0,0,0,0,-0.002284039,38
1,2803,32.8071,-0.600224,-0.00544772,0,0,0,0,-0.002284039,38
1,2851,33.5227,-0.742842,-0.00686225,0,0,0,0,-0.002284039,38
1,2899,34.2382,-0.885461,-0.0101452,0,0,0,0,-0.002284039,38
1,2947,34.9537,-1.02655,-0.0195249,0,0,0,0,-0.002284039,38
1,2995,35.6693,-1.15506,-0.105636,0,0,0,0,-0.002284039,38
2,3043,36.3848,-1.03452,-0.0553789,0,0,0,0,-0.002284039,38
2,3092,37.1153,-0.898956,0.00610714,0,0,0,0,-0.002284039,38
2,3141,37.8457,-0.757258,0.0301431,0,0,0,0,-0.002284039,38
2,3189,38.5612,-0.613412,0.0232913,0,0,0,0,-0.002284039,38
2,3237,39.2768,-0.466193,-0.00218191,0,0,0,0,-0.002284039,38
2,3285,39.9923,-0.322961,-0.00101919,0,0,0,0,-0.002284039,38
2,3333,40.7078,-0.180343,-0.00017378,0,0,0,0,-0.002284039,38
2,3381,41.4234,-0.0371112,0.000529375,0,0,0,0,-0.002284039,38
2,3429,42.1389,0.105201,0.00127228,0,0,0,0,-0.002284039,38
2,3477,42.8545,0.249046,0.00222914,0,0,0,0,-0.002284039,38
2,3527,43.5998,0.397798,0.00333144,0,0,0,0,-0.002284039,38
2,3575,44.3153,0.539803,0.00420678,0,0,0,0,-0.002284039,38
2,3623,45.0309,0.683342,0.00582251,0,0,0,0,-0.002284039,38
2,3671,45.7464,0.825654,0.010106,0,0,0,0,-0.002284039,38
2,3719,46.4619,0.968272,0.0141643,0,0,0,0,-0.002284039,38
2,3767,47.1775,1.11181,0.0143986,0,0,0,0,-0.002284039,38
2,3815,47.893,1.25412,0.0151721,0,0,0,0,-0.002284039,38
2,3863,48.6086,1.39643,0.0192796,0,0,0,0,-0.002284039,38
2,3911,49.3241,1.53415,0.0475518,0,0,0,0,-0.002284039,38
2,3961,50.0694,1.67707,0.0843811,0,0,0,0,-0.002284039,38
2,4009,50.785,1.74823,0.09357,0,0,0,0,-0.002284039,38
2,4057,51.5005,1.61634,0.0261621,0,0,0,0,-0.002284039,38
2,4105,52.216,1.48231,-0.0267939,0,0,0,0,-0.002284039,38
2,4153,52.9316,1.34031,-0.02991,0,0,0,0,-0.002284039,38
2,4201,53.6471,1.19339,-0.0085933,0,0,0,0,-0.002284039,38
2,4249,54.3627,1.04924,-0.00231195,0,0,0,0,-0.002284039,38
2,4297,55.0782,0.905704,0.000226043,0,0,0,0,-0.002284039,38
2,4346,55.8086,0.759098,0.00139932,0,0,0,0,-0.002284039,38
2,4395,56.5391,0.613106,0.00155709,0,0,0,0,-0.002284039,38
2,4443,57.2546,0.470488,0.000711927,0,0,0,0,-0.002284039,38
2,4491,57.9702,0.327256,-0.000250518,0,0,0,0,-0.002284039,38
2,4539,58.6857,0.184331,-0.000944226,0,0,0,0,-0.002284039,38
2,4587,59.4012,0.0414056,-0.00161432,0,0,0,0,-0.002284039,38
2,4635,60.1168,-0.10152,-0.00225,0,0,0,0,-0.002284039,38
2,4683,60.8323,-0.244751,-0.00301002,0,0,0,0,-0.002284039,38
2,4731,61.5478,-0.387677,-0.00388781,0,0,0,0,-0.002284039,38
2,4781,62.2932,-0.536736,-0.00481897,0,0,0,0,-0.002284039,38
2,4829,63.0087,-0.679661,-0.00567591,0,0,0,0,-0.002284039,38
2,4877,63.7243,-0.821973,-0.00701192,0,0,0,0,-0.002284039,38
2,4925,64.4398,-0.965205,-0.0100753,0,0,0,0,-0.002284039,38
2,4973,65.1553,-1.10598,-0.0189667,0,0,0,0,-0.002284039,38
3,5021,65.8709,-1.102,-0.0370011,0,0,0,0,-0.002284039,38
3,5069,66.5864,-0.968272,0.0202058,0,0,0,0,-0.002284039,38
3,5117,67.3019,-0.821666,-0.0062654,0,0,0,0,-0.002284039,38
3,5165,68.0175,-0.679354,-0.00390805,0,0,0,0,-0.002284039,38
3,5215,68.7628,-0.529988,-0.00290574,0,0,0,0,-0.002284039,38
3,5263,69.4784,-0.387063,-0.00190649,0,0,0,0,-0.002284039,38
3,5311,70.1939,-0.243525,-0.000990416,0,0,0,0,-0.002284039,38
3,5359,70.9094,-0.100599,0.000197997,0,0,0,0,-0.002284039,38
3,5407,71.625,0.0423258,0.00116113,0,0,0,0,-0.002284039,38
3,5455,72.3405,0.184638,0.00174976,0,0,0,0,-0.002284039,38
3,5503,73.056,0.327563,0.00288549,0,0,0,0,-0.002284039,38
3,5551,73.7716,0.471101,0.00367925,0,0,0,0,-0.002284039,38
3,5599,74.4871,0.614026,0.00473371,0,0,0,0,-0.002284039,38
3,5649,75.2325,0.762472,0.00783635,0,0,0,0,-0.002284039,38
3,5697,75.948,0.905091,0.0129191,0,0,0,0,-0.002284039,38
3,5745,76.6635,1.0474,0.0157414,0,0,0,0,-0.002284039,38
3,5793,77.3791,1.19033,0.0165253,0,0,0,0,-0.002284039,38
3,5841,78.0946,1.33387,0.0169099,0,0,0,0,-0.002284039,38
3,5889,78.8101,1.47372,0.0283519,0,0,0,0,-0.002284039,38
3,5937,79.5257,1.61113,0.0610714,0,0,0,0,-0.002284039,38
3,5985,80.2412,1.74731,0.102195,0,0,0,0,-0.002284039,38
3,6034,80.9717,1.68167,0.0349093,0,0,0,0,-0.002284039,38
3,6082,81.6872,1.54365,0.000764313,0,0,0,0,-0.002284039,38
3,6130,82.4027,1.40809,-0.0364122,0,0,0,0,-0.002284039,38
3,6178,83.11826,1.25964,-0.0114512,0,0,0,0,-0.002284039,38
3,6226,83.8338,1.1161,-0.00312534,0,0,0,0,-0.002284039,38
3,6274,84.5493,0.972259,0.000462697,0,0,0,0,-0.002284039,38
3,6322,85.2649,0.829028,0.00191017,0,0,0,0,-0.002284039,38
3,6370,85.9804,0.685489,0.00152556,0,0,0,0,-0.002284039,38
3,6418,86.69594,0.543177,0.000510298,0,0,0,0,-0.002284039,38
3,6468,87.44129,0.393811,0.000233036,0,0,0,0,-0.002284039,38
3,6516,88.1568,0.2515,-0.000282354,0,0,0,0,-0.002284039,38
3,6564,88.8724,0.108881,-0.00102691,0,0,0,0,-0.002284039,38
3,6612,89.5879,-0.0349642,-0.00195065,0,0,0,0,-0.002284039,38
3,6660,90.3034,-0.176663,-0.00285482,0,0,0,0,-0.002284039,38
3,6708,91.01897,-0.320815,-0.00370747,0,0,0,0,-0.002284039,38
3,6756,91.7345,-0.46374,-0.00448037,0,0,0,0,-0.002284039,38
3,6804,92.45,-0.606972,-0.00531583,0,0,0,0,-0.002284039,38
3,6852,93.1656,-0.74959,-0.00623657,0,0,0,0,-0.002284039,38
3,6902,93.9109,-0.898343,-0.00798847,0,0,0,0,-0.002284039,38
3,6950,94.6265,-1.04096,-0.0122161,0,0,0,0,-0.002284039,38
4,6998,95.3208,-1.15352,-0.0458342,0,0,0,0,-0.002284039,38
4,7046,95.6967,-1.08267,-0.0195679,0,0,0,0,-0.002284039,38
4,7095,96.0805,-1.0109,0.00945085,0,0,0,0,-0.002284039,38
4,7145,96.4721,-0.930547,-0.0103434,0,0,0,0,-0.002284039,38
4,7194,96.8558,-0.853563,-0.00700395,0,0,0,0,-0.002284039,38
4,7243,97.2396,-0.777194,-0.00520174,0,0,0,0,-0.002284039,38
4,7292,97.6234,-0.700824,-0.00432088,0,0,0,0,-0.002284039,38
4,7341,98.0072,-0.623534,-0.00375102,0,0,0,0,-0.002284039,38
4,7390,98.3909,-0.547164,-0.00319649,0,0,0,0,-0.002284039,38
4,7438,98.7669,-0.472634,-0.00263583,0,0,0,0,-0.002284039,38
4,7486,99.1428,-0.397184,-0.00205923,0,0,0,0,-0.002284039,38
4,7534,99.5187,-0.321735,-0.00149489,0,0,0,0,-0.002284039,38
4,7582,99.8947,-0.246592,-0.00108746,0,0,0,0,-0.002284039,38
4,7630,100.271,-0.171449,-0.000433131,0,0,0,0,-0.002284039,38
4,7679,100.654,-0.0950787,0.000227208,0,0,0,0,-0.002284039,38
4,7727,101.03,-0.0196289,0.00074499,0,0,0,0,-0.002284039,38
4,7775,101.406,0.0558208,0.00103605,0,0,0,0,-0.002284039,38
4,7823,101.782,0.130657,0.00131043,0,0,0,0,-0.002284039,38
4,7872,102.166,0.20672,0.00191262,0,0,0,0,-0.002284039,38
4,7921,102.55,0.28309,0.00258308,0,0,0,0,-0.002284039,38
4,7970,102.933,0.360687,0.00312472,0,0,0,0,-0.002284039,38
4,7995,103.129,0.399332,0.0033247,0,0,0,0,-0.002284039,38