File: Feb25/CV02.11.25/secondelectrode-1.0CV_650_FLiNaK_Ni_02_11_25_200mVperS_sh15.csv
Segment,Point,Elapsed Time (s),Potential (V),Current (A),Frequency (Hz),|Z| (ohms),Zre (ohms),Zim (ohms),Phase of Z (deg),ActionId
0,0,0.0051,-0.000919825,-0.00018157,0,0,0,0,-0.002284039,38
0,48,0.2499,-0.0499928,-0.000297014,0,0,0,0,-0.002284039,38
0,97,0.4998,-0.099986,-0.000395222,0,0,0,0,-0.002284039,38
0,146,0.7497,-0.149672,-0.000527351,0,0,0,0,-0.002284039,38
0,195,0.9996,-0.199052,-0.00066316,0,0,0,0,-0.002284039,38
0,244,1.2495,-0.249352,-0.000801301,0,0,0,0,-0.002284039,38
0,292,1.4943,-0.299345,-0.000908341,0,0,0,0,-0.002284039,38
0,341,1.7442,-0.348418,-0.000978945,0,0,0,0,-0.002284039,38
0,390,1.9941,-0.399025,-0.00101225,0,0,0,0,-0.002284039,38
0,438,2.2389,-0.447484,-0.00103158,0,0,0,0,-0.002284039,38
0,486,2.4837,-0.496557,-0.0010655,0,0,0,0,-0.002284039,38
0,535,2.7336,-0.54655,-0.0011518,0,0,0,0,-0.002284039,38
0,583,2.9784,-0.595623,-0.00130412,0,0,0,0,-0.002284039,38
0,632,3.2283,-0.645003,-0.00152648,0,0,0,0,-0.002284039,38
0,681,3.4782,-0.695303,-0.00178607,0,0,0,0,-0.002284039,38
0,731,3.7332,-0.746523,-0.00193041,0,0,0,0,-0.002284039,38
0,780,3.9831,-0.796209,-0.00193838,0,0,0,0,-0.002284039,38
0,828,4.2279,-0.845282,-0.00196353,0,0,0,0,-0.002284039,38
0,877,4.4778,-0.894969,-0.0019985,0,0,0,0,-0.002284039,38
0,925,4.7226,-0.944042,-0.00203224,0,0,0,0,-0.002284039,38
0,973,4.9674,-0.993115,-0.00204757,0,0,0,0,-0.002284039,38
1,1022,5.424461,-0.955083,-0.00143416,0,0,0,0,-0.002284039,38
1,1070,6.101597,-0.820132,-0.000916377,0,0,0,0,-0.002284039,38
1,1118,6.778733,-0.685182,2.01009e-05,0,0,0,0,-0.002284039,38
1,1166,7.455869,-0.549924,0.000115156,0,0,0,0,-0.002284039,38
1,1215,8.147112,-0.411293,0.000147759,0,0,0,0,-0.002284039,38
1,1263,8.824248,-0.275729,0.00044773,0,0,0,0,-0.002284039,38
1,1312,9.515491,-0.137711,0.000637765,0,0,0,0,-0.002284039,38
1,1360,10.1926,-0.00306677,0.000982626,0,0,0,0,-0.002284039,38
1,1408,10.8698,0.132497,0.00413072,0,0,0,0,-0.002284039,38
1,1456,11.5469,0.268368,0.00426076,0,0,0,0,-0.002284039,38
1,1504,12.224,0.403626,0.00565996,0,0,0,0,-0.002284039,38
1,1553,12.9153,0.54103,0.0065764,0,0,0,0,-0.002284039,38
1,1601,13.5924,0.676288,0.00611941,0,0,0,0,-0.002284039,38
1,1649,14.26955,0.811852,0.00736402,0,0,0,0,-0.002284039,38
1,1697,14.9467,0.946803,0.0119493,0,0,0,0,-0.002284039,38
1,1745,15.6238,1.08145,0.0146115,0,0,0,0,-0.002284039,38
1,1793,16.301,1.21732,0.016975,0,0,0,0,-0.002284039,38
1,1842,16.9922,1.3535,0.0182674,0,0,0,0,-0.002284039,38
1,1890,17.6693,1.4863,0.0335843,0,0,0,0,-0.002284039,38
1,1939,18.36058,1.62094,0.0575197,0,0,0,0,-0.002284039,38
1,1987,19.0377,1.75068,0.0889387,0,0,0,0,-0.002284039,38
1,2035,19.7149,1.68934,0.0439756,0,0,0,0,-0.002284039,38
1,2083,20.392,1.56267,-0.0137662,0,0,0,0,-0.002284039,38
1,2131,21.0691,1.43355,-0.0424972,0,0,0,0,-0.002284039,38
1,2180,21.7604,1.29093,-0.0158444,0,0,0,0,-0.002284039,38
1,2228,22.4375,1.15322,-0.00678741,0,0,0,0,-0.002284039,38
1,2276,23.1146,1.01765,-0.00312656,0,0,0,0,-0.002284039,38
1,2324,23.7918,0.881781,-0.00283642,0,0,0,0,-0.002284039,38
1,2372,24.4689,0.74591,-0.00176233,0,0,0,0,-0.002284039,38
1,2420,25.146,0.610959,-0.00112899,0,0,0,0,-0.002284039,38
1,2469,25.83729,0.472941,-0.000836756,0,0,0,0,-0.002284039,38
1,2517,26.5144,0.337684,-0.000733273,0,0,0,0,-0.002284039,38
1,2566,27.2057,0.199666,-0.00073401,0,0,0,0,-0.002284039,38
1,2614,27.8828,0.0641019,-0.000834119,0,0,0,0,-0.002284039,38
1,2662,28.5599,-0.0714623,-0.00112788,0,0,0,0,-0.002284039,38
1,2710,29.2371,-0.20672,-0.00134528,0,0,0,0,-0.002284039,38
1,2758,29.9142,-0.342284,-0.00147115,0,0,0,0,-0.002284039,38
1,2806,30.5913,-0.477848,-0.00157058,0,0,0,0,-0.002284039,38
1,2855,31.2826,-0.615559,-0.00185925,0,0,0,0,-0.002284039,38
1,2903,31.9597,-0.751124,-0.00230459,0,0,0,0,-0.002284039,38
1,2951,32.6369,-0.886074,-0.0035124,0,0,0,0,-0.002284039,38
1,2999,33.314,-1.01796,-0.00792774,0,0,0,0,-0.002284039,38
2,3047,33.9911,-0.883007,-0.00372648,0,0,0,0,-0.002284039,38
2,3096,34.6824,-0.744683,-0.00167523,0,0,0,0,-0.002284039,38
2,3144,35.3595,-0.609732,-0.00107599,0,0,0,0,-0.002284039,38
2,3193,36.0508,-0.471407,-0.000514531,0,0,0,0,-0.002284039,38
2,3241,36.7279,-0.33615,-0.000118499,0,0,0,0,-0.002284039,38
2,3289,37.40503,-0.200892,0.000426935,0,0,0,0,-0.002284039,38
2,3337,38.0822,-0.0647147,0.000798725,0,0,0,0,-0.002284039,38
2,3385,38.7593,0.0696226,0.000593109,0,0,0,0,-0.002284039,38
2,3433,39.4364,0.205187,0.000801117,0,0,0,0,-0.002284039,38
2,3482,40.1277,0.343511,0.000979559,0,0,0,0,-0.002284039,38
2,3530,40.8048,0.478769,0.00193348,0,0,0,0,-0.002284039,38
2,3578,41.482,0.61372,0.00448834,0,0,0,0,-0.002284039,38
2,3626,42.1591,0.748977,0.00521033,0,0,0,0,-0.002284039,38
2,3674,42.8362,0.884235,0.00799767,0,0,0,0,-0.002284039,38
2,3723,43.5275,1.02225,0.0112426,0,0,0,0,-0.002284039,38
2,3771,44.2046,1.15782,0.0123695,0,0,0,0,-0.002284039,38
2,3820,44.8958,1.29491,0.0126167,0,0,0,0,-0.002284039,38
2,3868,45.573,1.4314,0.0140091,0,0,0,0,-0.002284039,38
2,3916,46.2501,1.56328,0.0238863,0,0,0,0,-0.002284039,38
2,3964,46.9273,1.69333,0.0578203,0,0,0,0,-0.002284039,38
2,4013,47.6185,1.74577,0.063752,0,0,0,0,-0.002284039,38
2,4061,48.2956,1.62064,0.00593231,0,0,0,0,-0.002284039,38
2,4110,48.9869,1.48875,-0.0309589,0,0,0,0,-0.002284039,38
2,4158,49.664,1.35074,-0.0141085,0,0,0,0,-0.002284039,38
2,4206,50.3411,1.21302,-0.00465212,0,0,0,0,-0.002284039,38
2,4254,51.0183,1.07685,-4.22457e-05,0,0,0,0,-0.002284039,38
2,4302,51.6954,0.941895,-0.00171387,0,0,0,0,-0.002284039,38
2,4350,52.3726,0.807251,-0.0015231,0,0,0,0,-0.002284039,38
2,4399,53.0638,0.66862,-0.000703032,0,0,0,0,-0.002284039,38
2,4447,53.7409,0.532443,-0.000456808,0,0,0,0,-0.002284039,38
2,4495,54.4181,0.397798,-0.000463065,0,0,0,0,-0.002284039,38
2,4543,55.0952,0.261928,-0.000538454,0,0,0,0,-0.002284039,38
2,4591,55.7723,0.127283,-0.000616112,0,0,0,0,-0.002284039,38
2,4640,56.4636,-0.0113478,-0.00075781,0,0,0,0,-0.002284039,38
2,4688,57.1407,-0.146912,-0.00107599,0,0,0,0,-0.002284039,38
2,4737,57.832,-0.284316,-0.0013224,0,0,0,0,-0.002284039,38
2,4785,58.5091,-0.419881,-0.00149587,0,0,0,0,-0.002284039,38
2,4833,59.1862,-0.555445,-0.00165456,0,0,0,0,-0.002284039,38
2,4881,59.8634,-0.691009,-0.00198132,0,0,0,0,-0.002284039,38
2,4929,60.54051,-0.82596,-0.00252542,0,0,0,0,-0.002284039,38
2,4977,61.2176,-0.961831,-0.00422641,0,0,0,0,-0.002284039,38
3,5026,61.9089,-0.940055,-0.00392707,0,0,0,0,-0.002284039,38
3,5074,62.586,-0.805104,-0.00185005,0,0,0,0,-0.002284039,38
3,5122,63.2632,-0.66954,-0.0011937,0,0,0,0,-0.002284039,38
3,5170,63.9403,-0.533975,-0.000630527,0,0,0,0,-0.002284039,38
3,5218,64.6174,-0.399331,-0.000307872,0,0,0,0,-0.002284039,38
3,5267,65.3087,-0.2607,0.00030824,0,0,0,0,-0.002284039,38
3,5315,65.9858,-0.125136,0.000596789,0,0,0,0,-0.002284039,38
3,5364,66.6771,0.0125753,0.00050717,0,0,0,0,-0.002284039,38
3,5412,67.3542,0.148139,0.000685489,0,0,0,0,-0.002284039,38
3,5460,68.0313,0.283397,0.000849147,0,0,0,0,-0.002284039,38
3,5508,68.7085,0.418654,0.00122836,0,0,0,0,-0.002284039,38
3,5556,69.3856,0.553912,0.00416569,0,0,0,0,-0.002284039,38
3,5604,70.0627,0.688863,0.00450122,0,0,0,0,-0.002284039,38
3,5653,70.754,0.827801,0.00610407,0,0,0,0,-0.002284039,38
3,5701,71.4311,0.961831,0.0097594,0,0,0,0,-0.002284039,38
3,5749,72.10825,1.09678,0.0112193,0,0,0,0,-0.002284039,38
3,5797,72.7854,1.23204,0.0127897,0,0,0,0,-0.002284039,38
3,5845,73.4625,1.3676,0.0124915,0,0,0,0,-0.002284039,38
3,5893,74.1397,1.50286,0.0161009,0,0,0,0,-0.002284039,38
3,5942,74.8309,1.63567,0.0398902,0,0,0,0,-0.002284039,38
3,5991,75.5221,1.76755,0.0793572,0,0,0,0,-0.002284039,38
3,6039,76.19928,1.67676,0.0287875,0,0,0,0,-0.002284039,38
3,6087,76.8764,1.54887,-0.0186158,0,0,0,0,-0.002284039,38
3,6135,77.5536,1.41576,-0.0257204,0,0,0,0,-0.002284039,38
3,6183,78.2307,1.27713,-0.00787683,0,0,0,0,-0.002284039,38
3,6231,78.9078,1.14095,-0.000571639,0,0,0,0,-0.002284039,38
3,6280,79.5991,1.00201,-0.000799767,0,0,0,0,-0.002284039,38
3,6328,80.2762,0.867059,-0.00248125,0,0,0,0,-0.002284039,38
3,6376,80.9533,0.731495,-0.00113849,0,0,0,0,-0.002284039,38
3,6424,81.6305,0.595931,-0.000581331,0,0,0,0,-0.002284039,38
3,6472,82.3076,0.460367,-0.000474107,0,0,0,0,-0.002284039,38
3,6520,82.9847,0.325416,-0.000523486,0,0,0,0,-0.002284039,38
3,6569,83.67599,0.187091,-0.000609978,0,0,0,0,-0.002284039,38
3,6618,84.3672,0.0490733,-0.00071438,0,0,0,0,-0.002284039,38
3,6666,85.0444,-0.0864909,-0.000956004,0,0,0,0,-0.002284039,38
3,6714,85.7215,-0.221748,-0.00125688,0,0,0,0,-0.002284039,38
3,6762,86.3986,-0.356699,-0.00150219,0,0,0,0,-0.002284039,38
3,6810,87.0758,-0.49257,-0.0016283,0,0,0,0,-0.002284039,38
3,6858,87.7529,-0.628134,-0.00186109,0,0,0,0,-0.002284039,38
3,6907,88.4442,-0.765845,-0.00228803,0,0,0,0,-0.002284039,38
3,6955,89.1213,-0.90141,-0.00312166,0,0,0,0,-0.002284039,38
4,7003,89.7492,-1.00324,-0.00527044,0,0,0,0,-0.002284039,38
4,7052,90.0957,-0.934841,-0.00348664,0,0,0,0,-0.002284039,38
4,7101,90.4421,-0.865218,-0.00233465,0,0,0,0,-0.002284039,38
4,7150,90.7886,-0.796209,-0.00176049,0,0,0,0,-0.002284039,38
4,7199,91.1351,-0.726894,-0.00142986,0,0,0,0,-0.002284039,38
4,7247,91.4745,-0.658498,-0.00115174,0,0,0,0,-0.002284039,38
4,7295,91.8139,-0.591636,-0.000861047,0,0,0,0,-0.002284039,38
4,7343,92.1533,-0.523241,-0.000574093,0,0,0,0,-0.002284039,38
4,7391,92.4927,-0.455459,-0.000400558,0,0,0,0,-0.002284039,38
4,7439,92.8321,-0.387677,-0.000388045,0,0,0,0,-0.002284039,38
4,7488,93.1786,-0.318361,-2.09848e-05,0,0,0,0,-0.002284039,38
4,7538,93.5322,-0.247818,0.000311982,0,0,0,0,-0.002284039,38
4,7587,93.87864,-0.178503,0.000468954,0,0,0,0,-0.002284039,38
4,7636,94.2251,-0.109187,0.00053692,0,0,0,0,-0.002284039,38
4,7684,94.5645,-0.0410984,0.000465826,0,0,0,0,-0.002284039,38
4,7732,94.9039,0.0266837,0.000476622,0,0,0,0,-0.002284039,38
4,7780,95.2433,0.0941591,0.000597464,0,0,0,0,-0.002284039,38
4,7828,95.5828,0.162248,0.000700579,0,0,0,0,-0.002284039,38
4,7877,95.92923,0.231257,0.000786334,0,0,0,0,-0.002284039,38
4,7926,96.2757,0.300573,0.000861784,0,0,0,0,-0.002284039,38
4,7975,96.6222,0.370195,0.00100839,0,0,0,0,-0.002284039,38
4,7996,96.7707,0.399332,0.00114947,0,0,0,0,-0.002284039,38