File: CV02.11.25/2ndsecondelectrode-1.2CV_650_FLiNaK_Ni_02_11_25_200mVperS_sh15.csv
Segment,Point,Elapsed Time (s),Potential (V),Current (A),Frequency (Hz),|Z| (ohms),Zre (ohms),Zim (ohms),Phase of Z (deg),ActionId
0,0,0.00551,-0.000919825,-0.000110414,0,0,0,0,-0.002284039,38
0,48,0.26999,-0.0533666,-0.000330936,0,0,0,0,-0.002284039,38
0,97,0.53998,-0.107654,-0.000385407,0,0,0,0,-0.002284039,38
0,145,0.80446,-0.160714,-0.000461838,0,0,0,0,-0.002284039,38
0,194,1.07445,-0.214387,-0.000560966,0,0,0,0,-0.002284039,38
0,242,1.33893,-0.267448,-0.000671871,0,0,0,0,-0.002284039,38
0,290,1.60341,-0.320201,-0.000787438,0,0,0,0,-0.002284039,38
0,339,1.8734,-0.374488,-0.000904784,0,0,0,0,-0.002284039,38
0,388,2.14339,-0.428162,-0.000988269,0,0,0,0,-0.002284039,38
0,436,2.40787,-0.481529,-0.00104857,0,0,0,0,-0.002284039,38
0,485,2.67786,-0.535202,-0.00109617,0,0,0,0,-0.002284039,38
0,534,2.94785,-0.589489,-0.00114628,0,0,0,0,-0.002284039,38
0,583,3.21784,-0.643163,-0.00122768,0,0,0,0,-0.002284039,38
0,631,3.48232,-0.696223,-0.00134288,0,0,0,0,-0.002284039,38
0,680,3.75231,-0.74959,-0.00151519,0,0,0,0,-0.002284039,38
0,729,4.0223,-0.804184,-0.00166965,0,0,0,0,-0.002284039,38
0,777,4.28678,-0.856631,-0.00176559,0,0,0,0,-0.002284039,38
0,826,4.55677,-0.910611,-0.00186171,0,0,0,0,-0.002284039,38
0,874,4.82125,-0.963364,-0.00200341,0,0,0,0,-0.002284039,38
0,923,5.09124,-1.01765,-0.00208744,0,0,0,0,-0.002284039,38
0,972,5.36123,-1.07163,-0.00212118,0,0,0,0,-0.002284039,38
1,1020,5.814857,-1.04127,-0.00176601,0,0,0,0,-0.002284039,38
1,1068,6.511673,-0.901716,-0.00130356,0,0,0,0,-0.002284039,38
1,1116,7.208489,-0.762778,-0.000618811,0,0,0,0,-0.002284039,38
1,1165,7.919822,-0.62016,-0.000154089,0,0,0,0,-0.002284039,38
1,1213,8.616638,-0.481222,-0.000225797,0,0,0,0,-0.002284039,38
1,1261,9.313454,-0.342284,0.000122063,0,0,0,0,-0.002284039,38
1,1309,10.01027,-0.203039,0.000312166,0,0,0,0,-0.002284039,38
1,1358,10.7216,-0.0604209,0.000450858,0,0,0,0,-0.002284039,38
1,1406,11.4184,0.0785171,0.00229784,0,0,0,0,-0.002284039,38
1,1454,12.1152,0.218068,0.00425279,0,0,0,0,-0.002284039,38
1,1503,12.8266,0.35946,0.00462084,0,0,0,0,-0.002284039,38
1,1551,13.5234,0.499012,0.00616357,0,0,0,0,-0.002284039,38
1,1599,14.2202,0.638563,0.00640771,0,0,0,0,-0.002284039,38
1,1647,14.917,0.777808,0.00663651,0,0,0,0,-0.002284039,38
1,1695,15.6138,0.916746,0.00976246,0,0,0,0,-0.002284039,38
1,1743,16.3106,1.05538,0.0136043,0,0,0,0,-0.002284039,38
1,1791,17.0075,1.19431,0.0169707,0,0,0,0,-0.002284039,38
1,1840,17.7188,1.33417,0.0262173,0,0,0,0,-0.002284039,38
1,1888,18.4156,1.47035,0.0436566,0,0,0,0,-0.002284039,38
1,1936,19.1124,1.60653,0.0642918,0,0,0,0,-0.002284039,38
1,1984,19.8092,1.74025,0.0958948,0,0,0,0,-0.002284039,38
1,2033,20.5206,1.69578,0.0241685,0,0,0,0,-0.002284039,38
1,2081,21.2174,1.56114,-0.00479259,0,0,0,0,-0.002284039,38
1,2129,21.91421,1.42956,-0.0469935,0,0,0,0,-0.002284039,38
1,2177,22.611,1.28449,-0.0179423,0,0,0,0,-0.002284039,38
1,2225,23.3078,1.14309,-0.00737261,0,0,0,0,-0.002284039,38
1,2273,24.0047,1.00324,-0.00305909,0,0,0,0,-0.002284039,38
1,2322,24.716,0.860925,-0.00119358,0,0,0,0,-0.002284039,38
1,2370,25.4128,0.72168,-0.00133313,0,0,0,0,-0.002284039,38
1,2418,26.1096,0.582129,-0.000935454,0,0,0,0,-0.002284039,38
1,2466,26.8064,0.443498,-0.000676778,0,0,0,0,-0.002284039,38
1,2515,27.5178,0.301186,-0.000613719,0,0,0,0,-0.002284039,38
1,2563,28.2146,0.161328,-0.000730145,0,0,0,0,-0.002284039,38
1,2611,28.9114,0.0223899,-0.00102237,0,0,0,0,-0.002284039,38
1,2659,29.60822,-0.116855,-0.00137631,0,0,0,0,-0.002284039,38
1,2708,30.3196,-0.259167,-0.00157874,0,0,0,0,-0.002284039,38
1,2756,31.0164,-0.399025,-0.00173381,0,0,0,0,-0.002284039,38
1,2804,31.7132,-0.537656,-0.00199604,0,0,0,0,-0.002284039,38
1,2852,32.41,-0.677207,-0.00243402,0,0,0,0,-0.002284039,38
1,2900,33.1068,-0.816452,-0.00320324,0,0,0,0,-0.002284039,38
1,2948,33.8036,-0.95539,-0.00517045,0,0,0,0,-0.002284039,38
1,2996,34.5004,-1.09402,-0.0118536,0,0,0,0,-0.002284039,38
2,3045,35.2118,-0.965818,-0.00729961,0,0,0,0,-0.002284039,38
2,3093,35.9086,-0.827187,-0.00293089,0,0,0,0,-0.002284039,38
2,3141,36.6054,-0.687942,-0.001555,0,0,0,0,-0.002284039,38
2,3190,37.3167,-0.545937,-0.000956556,0,0,0,0,-0.002284039,38
2,3238,38.0136,-0.406692,-0.00033339,0,0,0,0,-0.002284039,38
2,3286,38.7104,-0.267448,-8.98036e-06,0,0,0,0,-0.002284039,38
2,3334,39.4072,-0.127896,0.000796332,0,0,0,0,-0.002284039,38
2,3382,40.104,0.0113484,0.000732353,0,0,0,0,-0.002284039,38
2,3430,40.8008,0.150286,0.00101894,0,0,0,0,-0.002284039,38
2,3478,41.4976,0.289838,0.00120799,0,0,0,0,-0.002284039,38
2,3527,42.209,0.43215,0.00158236,0,0,0,0,-0.002284039,38
2,3575,42.9058,0.570781,0.00383628,0,0,0,0,-0.002284039,38
2,3623,43.6026,0.710025,0.004857,0,0,0,0,-0.002284039,38
2,3671,44.2994,0.84927,0.00725606,0,0,0,0,-0.002284039,38
2,3720,45.0108,0.990968,0.0110985,0,0,0,0,-0.002284039,38
2,3768,45.7076,1.13052,0.0122787,0,0,0,0,-0.002284039,38
2,3816,46.4044,1.26946,0.0127731,0,0,0,0,-0.002284039,38
2,3865,47.1157,1.41146,0.0140944,0,0,0,0,-0.002284039,38
2,3913,47.8125,1.54764,0.0297382,0,0,0,0,-0.002284039,38
2,3961,48.5094,1.68044,0.0644451,0,0,0,0,-0.002284039,38
2,4009,49.20617,1.75405,0.0780936,0,0,0,0,-0.002284039,38
2,4057,49.903,1.62524,0.0157402,0,0,0,0,-0.002284039,38
2,4105,50.5998,1.49458,-0.032928,0,0,0,0,-0.002284039,38
2,4153,51.2966,1.35319,-0.0225429,0,0,0,0,-0.002284039,38
2,4202,52.008,1.20873,-0.00743824,0,0,0,0,-0.002284039,38
2,4250,52.7048,1.06857,-0.00283642,0,0,0,0,-0.002284039,38
2,4298,53.4016,0.928707,-0.00215062,0,0,0,0,-0.002284039,38
2,4346,54.0984,0.789462,-0.0011215,0,0,0,0,-0.002284039,38
2,4395,54.8097,0.646844,-0.000609487,0,0,0,0,-0.002284039,38
2,4443,55.5065,0.507906,-0.000470181,0,0,0,0,-0.002284039,38
2,4491,56.2034,0.368355,-0.000504655,0,0,0,0,-0.002284039,38
2,4539,56.90018,0.229417,-0.000604089,0,0,0,0,-0.002284039,38
2,4587,57.597,0.090172,-0.000770446,0,0,0,0,-0.002284039,38
2,4635,58.2938,-0.0493794,-0.00110371,0,0,0,0,-0.002284039,38
2,4684,59.0051,-0.191384,-0.00142441,0,0,0,0,-0.002284039,38
2,4732,59.702,-0.331243,-0.00164438,0,0,0,0,-0.002284039,38
2,4780,60.3988,-0.470181,-0.00183533,0,0,0,0,-0.002284039,38
2,4828,61.0956,-0.609119,-0.00215676,0,0,0,0,-0.002284039,38
2,4877,61.8069,-0.75143,-0.0026665,0,0,0,0,-0.002284039,38
2,4925,62.5037,-0.890675,-0.00364183,0,0,0,0,-0.002284039,38
2,4973,63.2006,-1.02992,-0.00671257,0,0,0,0,-0.002284039,38
3,5021,63.8974,-1.0336,-0.00868102,0,0,0,0,-0.002284039,38
3,5070,64.6087,-0.891902,-0.00335107,0,0,0,0,-0.002284039,38
3,5118,65.3055,-0.753271,-0.00175559,0,0,0,0,-0.002284039,38
3,5166,66.0023,-0.613719,-0.00113629,0,0,0,0,-0.002284039,38
3,5214,66.6992,-0.474474,-0.000460734,0,0,0,0,-0.002284039,38
3,5262,67.396,-0.334616,-0.000119953,0,0,0,0,-0.002284039,38
3,5310,68.0928,-0.195372,0.000670644,0,0,0,0,-0.002284039,38
3,5358,68.7896,-0.0567404,0.000768729,0,0,0,0,-0.002284039,38
3,5407,69.5009,0.0855714,0.000935822,0,0,0,0,-0.002284039,38
3,5455,70.1978,0.225123,0.00112463,0,0,0,0,-0.002284039,38
3,5503,70.8946,0.363754,0.00125737,0,0,0,0,-0.002284039,38
3,5552,71.6059,0.506679,0.00280207,0,0,0,0,-0.002284039,38
3,5600,72.3027,0.645617,0.00450429,0,0,0,0,-0.002284039,38
3,5648,72.9995,0.784555,0.00568695,0,0,0,0,-0.002284039,38
3,5696,73.6963,0.923493,0.00939319,0,0,0,0,-0.002284039,38
3,5744,74.3932,1.06274,0.0119898,0,0,0,0,-0.002284039,38
3,5792,75.09,1.20198,0.0134607,0,0,0,0,-0.002284039,38
3,5840,75.7868,1.34092,0.0135442,0,0,0,0,-0.002284039,38
3,5889,76.49813,1.48017,0.0267632,0,0,0,0,-0.002284039,38
3,5937,77.1949,1.61389,0.0600408,0,0,0,0,-0.002284039,38
3,5985,77.8918,1.74669,0.101827,0,0,0,0,-0.002284039,38
3,6033,78.5886,1.69179,0.0244568,0,0,0,0,-0.002284039,38
3,6082,79.2999,1.55316,0.00312104,0,0,0,0,-0.002284039,38
3,6130,79.9967,1.42097,-0.0408103,0,0,0,0,-0.002284039,38
3,6178,80.6935,1.27805,-0.0190649,0,0,0,0,-0.002284039,38
3,6227,81.4049,1.13328,-0.00742965,0,0,0,0,-0.002284039,38
3,6275,82.1017,0.993729,-0.00314926,0,0,0,0,-0.002284039,38
3,6323,82.7985,0.853871,-0.00104654,0,0,0,0,-0.002284039,38
3,6371,83.4953,0.715239,2.01009e-05,0,0,0,0,-0.002284039,38
3,6419,84.19214,0.575381,-0.000411293,0,0,0,0,-0.002284039,38
3,6467,84.889,0.436137,-0.000163842,0,0,0,0,-0.002284039,38
3,6515,85.5858,0.296892,-0.000230275,0,0,0,0,-0.002284039,38
3,6564,86.2971,0.154274,-0.000548452,0,0,0,0,-0.002284039,38
3,6612,86.9939,0.0153356,-0.00100066,0,0,0,0,-0.002284039,38
3,6660,87.6907,-0.123909,-0.00141373,0,0,0,0,-0.002284039,38
3,6708,88.3876,-0.263154,-0.00172676,0,0,0,0,-0.002284039,38
3,6757,89.0989,-0.405159,-0.00204696,0,0,0,0,-0.002284039,38
3,6805,89.7957,-0.54471,-0.00249598,0,0,0,0,-0.002284039,38
3,6853,90.4925,-0.683955,-0.00305418,0,0,0,0,-0.002284039,38
3,6901,91.1893,-0.8232,-0.00414667,0,0,0,0,-0.002284039,38
3,6949,91.88615,-0.962138,-0.0071346,0,0,0,0,-0.002284039,38
4,6997,92.5759,-1.09034,-0.0200991,0,0,0,0,-0.002284039,38
4,7045,92.9346,-1.02103,-0.00516371,0,0,0,0,-0.002284039,38
4,7094,93.3008,-0.947109,-0.00991704,0,0,0,0,-0.002284039,38
4,7143,93.66698,-0.874113,-0.00628196,0,0,0,0,-0.002284039,38
4,7192,94.0332,-0.801423,-0.00377801,0,0,0,0,-0.002284039,38
4,7240,94.3919,-0.730268,-0.0025015,0,0,0,0,-0.002284039,38
4,7288,94.7506,-0.657578,-0.00191262,0,0,0,0,-0.002284039,38
4,7336,95.1093,-0.586422,-0.00156911,0,0,0,0,-0.002284039,38
4,7384,95.468,-0.514653,-0.00125786,0,0,0,0,-0.002284039,38
4,7433,95.83415,-0.441657,-0.000905336,0,0,0,0,-0.002284039,38
4,7482,96.2003,-0.368967,-0.000557224,0,0,0,0,-0.002284039,38
4,7531,96.5665,-0.295358,-0.000231993,0,0,0,0,-0.002284039,38
4,7580,96.9327,-0.222362,-0.000114966,0,0,0,0,-0.002284039,38
4,7628,97.2914,-0.150286,0.000320876,0,0,0,0,-0.002284039,38
4,7676,97.6501,-0.0788232,0.000696162,0,0,0,0,-0.002284039,38
4,7724,98.0088,-0.00674725,0.000962506,0,0,0,0,-0.002284039,38
4,7772,98.3675,0.065022,0.000945024,0,0,0,0,-0.002284039,38
4,7821,98.7337,0.138018,0.000951035,0,0,0,0,-0.002284039,38
4,7870,99.0999,0.211321,0.00115757,0,0,0,0,-0.002284039,38
4,7919,99.466,0.28401,0.00135061,0,0,0,0,-0.002284039,38
4,7967,99.8247,0.355473,0.00152065,0,0,0,0,-0.002284039,38
4,7996,100.041,0.399332,0.00159598,0,0,0,0,-0.002284039,38