File: CV02.11.25/scan1652secondelectrode-1.108CV_650_FLiNaK_Ni_02_11_25_200mVperS_sh15.csv
Segment,Point,Elapsed Time (s),Potential (V),Current (A),Frequency (Hz),|Z| (ohms),Zre (ohms),Zim (ohms),Phase of Z (deg),ActionId
0,0,0.0085,-0.00153353,-0.000933001,0,0,0,0,-0.002284039,38
0,36,0.3145,-0.0628748,-0.00325661,0,0,0,0,-0.002284039,38
0,72,0.6205,-0.123603,-0.00507292,0,0,0,0,-0.002284039,38
0,108,0.9265,-0.184331,-0.00675858,0,0,0,0,-0.002284039,38
0,144,1.2325,-0.245365,-0.00836388,0,0,0,0,-0.002284039,38
0,180,1.5385,-0.3064,-0.00991091,0,0,0,0,-0.002284039,38
0,216,1.8445,-0.367127,-0.0114224,0,0,0,0,-0.002284039,38
0,252,2.1505,-0.428469,-0.0129363,0,0,0,0,-0.002284039,38
0,288,2.4565,-0.489197,-0.0144367,0,0,0,0,-0.002284039,38
0,324,2.7625,-0.550845,-0.0159493,0,0,0,0,-0.002284039,38
0,360,3.0685,-0.611266,-0.0174675,0,0,0,0,-0.002284039,38
0,396,3.3745,-0.671073,-0.0190465,0,0,0,0,-0.002284039,38
0,432,3.6805,-0.732415,-0.0206843,0,0,0,0,-0.002284039,38
0,468,3.9865,-0.793143,-0.0222362,0,0,0,0,-0.002284039,38
0,504,4.2925,-0.854177,-0.0237023,0,0,0,0,-0.002284039,38
0,540,4.5985,-0.914598,-0.0251622,0,0,0,0,-0.002284039,38
0,576,4.9045,-0.97594,-0.0266466,0,0,0,0,-0.002284039,38
0,612,5.2105,-1.03697,-0.0280698,0,0,0,0,-0.002284039,38
0,648,5.5165,-1.0977,-0.0297137,0,0,0,0,-0.002284039,38
0,684,5.8225,-1.15935,-0.0313331,0,0,0,0,-0.002284039,38
0,721,6.137,-1.2213,-0.0330139,0,0,0,0,-0.002284039,38
0,758,6.4515,-1.28449,-0.0346885,0,0,0,0,-0.002284039,38
0,794,6.7575,-1.34491,-0.0364183,0,0,0,0,-0.002284039,38
0,831,7.072,-1.40717,-0.0385714,0,0,0,0,-0.002284039,38
0,867,7.378,-1.4679,-0.0406447,0,0,0,0,-0.002284039,38
0,904,7.6925,-1.53077,-0.0432824,0,0,0,0,-0.002284039,38
0,940,7.9985,-1.59058,-0.0466807,0,0,0,0,-0.002284039,38
0,977,8.313,-1.65284,-0.0516616,0,0,0,0,-0.002284039,38
1,1013,8.717112,-1.6464,-0.0589122,0,0,0,0,-0.002284039,38
1,1049,9.2754,-1.54181,-0.0176295,0,0,0,0,-0.002284039,38
1,1085,9.833688,-1.42649,-0.0392891,0,0,0,0,-0.002284039,38
1,1121,10.392,-1.31546,-0.0353878,0,0,0,0,-0.002284039,38
1,1157,10.9503,-1.20444,-0.0319465,0,0,0,0,-0.002284039,38
1,1193,11.5086,-1.09402,-0.0286157,0,0,0,0,-0.002284039,38
1,1229,12.06684,-0.98238,-0.0250579,0,0,0,0,-0.002284039,38
1,1265,12.6251,-0.871046,-0.0215921,0,0,0,0,-0.002284039,38
1,1301,13.1834,-0.760325,-0.0181079,0,0,0,0,-0.002284039,38
1,1337,13.7417,-0.649604,-0.014636,0,0,0,0,-0.002284039,38
1,1373,14.3,-0.53919,-0.0111807,0,0,0,0,-0.002284039,38
1,1409,14.85828,-0.427855,-0.00861231,0,0,0,0,-0.002284039,38
1,1445,15.4166,-0.316521,-0.00596851,0,0,0,0,-0.002284039,38
1,1481,15.9749,-0.2058,-0.00297137,0,0,0,0,-0.002284039,38
1,1517,16.5331,-0.0935454,0.000736095,0,0,0,0,-0.002284039,38
1,1553,17.0914,0.0171756,0.00554402,0,0,0,0,-0.002284039,38
1,1589,17.64972,0.127897,0.00962874,0,0,0,0,-0.002284039,38
1,1625,18.208,0.239538,0.014341,0,0,0,0,-0.002284039,38
1,1661,18.7663,0.349339,0.020077,0,0,0,0,-0.002284039,38
1,1697,19.3246,0.459446,0.0274564,0,0,0,0,-0.002284039,38
1,1733,19.8829,0.569554,0.0338052,0,0,0,0,-0.002284039,38
1,1769,20.44116,0.680888,0.0372526,0,0,0,0,-0.002284039,38
1,1805,20.9994,0.792836,0.0398902,0,0,0,0,-0.002284039,38
1,1841,21.5577,0.90325,0.0474413,0,0,0,0,-0.002284039,38
1,1877,22.116,1.01121,0.064942,0,0,0,0,-0.002284039,38
1,1914,22.68982,1.12163,0.0895398,0,0,0,0,-0.002284039,38
1,1950,23.2481,1.22867,0.11707,0,0,0,0,-0.002284039,38
1,1987,23.8219,1.34092,0.130657,0,0,0,0,-0.002284039,38
1,2024,24.3957,1.30841,0.0729777,0,0,0,0,-0.002284039,38
1,2060,24.954,1.19953,0.0570228,0,0,0,0,-0.002284039,38
1,2097,25.5278,1.09249,0.0134644,0,0,0,0,-0.002284039,38
1,2133,26.0861,0.986061,-0.018249,0,0,0,0,-0.002284039,38
1,2169,26.64436,0.870126,0.00723766,0,0,0,0,-0.002284039,38
1,2205,27.2026,0.757565,0.0147796,0,0,0,0,-0.002284039,38
1,2241,27.7609,0.645924,0.0163775,0,0,0,0,-0.002284039,38
1,2277,28.3192,0.534896,0.0157899,0,0,0,0,-0.002284039,38
1,2313,28.8775,0.423255,0.0140637,0,0,0,0,-0.002284039,38
1,2349,29.4358,0.31192,0.0114279,0,0,0,0,-0.002284039,38
1,2385,29.9941,0.200893,0.0085203,0,0,0,0,-0.002284039,38
1,2421,30.5524,0.089865,-0.00130234,0,0,0,0,-0.002284039,38
1,2457,31.1107,-0.0211627,-0.00644819,0,0,0,0,-0.002284039,38
1,2493,31.669,-0.13127,-0.0118303,0,0,0,0,-0.002284039,38
1,2529,32.22724,-0.242911,-0.016353,0,0,0,0,-0.002284039,38
1,2565,32.7855,-0.353326,-0.0197274,0,0,0,0,-0.002284039,38
1,2601,33.3438,-0.46466,-0.0220092,0,0,0,0,-0.002284039,38
1,2637,33.9021,-0.575994,-0.0236961,0,0,0,0,-0.002284039,38
1,2673,34.4604,-0.686715,-0.0253523,0,0,0,0,-0.002284039,38
1,2709,35.01868,-0.79805,-0.0273827,0,0,0,0,-0.002284039,38
1,2745,35.577,-0.909691,-0.0296278,0,0,0,0,-0.002284039,38
1,2781,36.1353,-1.02072,-0.0319404,0,0,0,0,-0.002284039,38
1,2817,36.6935,-1.13205,-0.0344063,0,0,0,0,-0.002284039,38
1,2853,37.2518,-1.24277,-0.0375715,0,0,0,0,-0.002284039,38
1,2889,37.81012,-1.3538,-0.0413256,0,0,0,0,-0.002284039,38
1,2925,38.3684,-1.46483,-0.0473003,0,0,0,0,-0.002284039,38
1,2961,38.9267,-1.56758,-0.100268,0,0,0,0,-0.002284039,38
1,2997,39.485,-1.6691,-0.156561,0,0,0,0,-0.002284039,38
2,3034,40.05878,-1.57095,-0.102293,0,0,0,0,-0.002284039,38
2,3070,40.6171,-1.4679,-0.0552501,0,0,0,0,-0.002284039,38
2,3107,41.1909,-1.3627,-0.00261375,0,0,0,0,-0.002284039,38
2,3144,41.76466,-1.25627,0.047245,0,0,0,0,-0.002284039,38
2,3180,42.3229,-1.1388,0.0155255,0,0,0,0,-0.002284039,38
2,3217,42.8967,-1.02593,0.0223466,0,0,0,0,-0.002284039,38
2,3254,43.47054,-0.901717,-0.0276649,0,0,0,0,-0.002284039,38
2,3290,44.0288,-0.791609,-0.022868,0,0,0,0,-0.002284039,38
2,3326,44.5871,-0.680581,-0.0188502,0,0,0,0,-0.002284039,38
2,3362,45.1454,-0.569247,-0.015182,0,0,0,0,-0.002284039,38
2,3398,45.7037,-0.459446,-0.0117229,0,0,0,0,-0.002284039,38
2,3434,46.26198,-0.347805,-0.0082731,0,0,0,0,-0.002284039,38
2,3470,46.8203,-0.236777,-0.00519806,0,0,0,0,-0.002284039,38
2,3506,47.3786,-0.125136,-0.00163474,0,0,0,0,-0.002284039,38
2,3542,47.9368,-0.0141085,0.00446994,0,0,0,0,-0.002284039,38
2,3578,48.4951,0.0966125,0.00881413,0,0,0,0,-0.002284039,38
2,3614,49.05342,0.207947,0.0121106,0,0,0,0,-0.002284039,38
2,3650,49.6117,0.319588,0.0151985,0,0,0,0,-0.002284039,38
2,3686,50.17,0.429389,0.0186968,0,0,0,0,-0.002284039,38
2,3722,50.7283,0.539803,0.023003,0,0,0,0,-0.002284039,38
2,3758,51.2866,0.651138,0.0275545,0,0,0,0,-0.002284039,38
2,3794,51.84486,0.762165,0.0323391,0,0,0,0,-0.002284039,38
2,3830,52.4031,0.872273,0.0389394,0,0,0,0,-0.002284039,38
2,3866,52.9614,0.982687,0.048981,0,0,0,0,-0.002284039,38
2,3902,53.5197,1.09065,0.0667761,0,0,0,0,-0.002284039,38
2,3938,54.078,1.19799,0.0909262,0,0,0,0,-0.002284039,38
2,3974,54.6363,1.30534,0.119229,0,0,0,0,-0.002284039,38
2,4010,55.1946,1.34797,0.0835468,0,0,0,0,-0.002284039,38
2,4046,55.7529,1.24124,0.0512936,0,0,0,0,-0.002284039,38
2,4082,56.3112,1.13757,0.0114003,0,0,0,0,-0.002284039,38
2,4118,56.8695,1.02777,-0.00597587,0,0,0,0,-0.002284039,38
2,4155,57.4432,0.910611,0.0143275,0,0,0,0,-0.002284039,38
2,4191,58.0015,0.79897,0.0181245,0,0,0,0,-0.002284039,38
2,4228,58.5753,0.682728,0.0182797,0,0,0,0,-0.002284039,38
2,4265,59.1491,0.568327,0.0167707,0,0,0,0,-0.002284039,38
2,4301,59.7074,0.457299,0.0144029,0,0,0,0,-0.002284039,38
2,4338,60.2812,0.344125,0.00642366,0,0,0,0,-0.002284039,38
2,4375,60.855,0.229723,0.00219786,0,0,0,0,-0.002284039,38
2,4411,61.4133,0.118082,-0.00240458,0,0,0,0,-0.002284039,38
2,4447,61.9716,0.00766766,-0.00696469,0,0,0,0,-0.002284039,38
2,4483,62.5299,-0.103667,-0.0112028,0,0,0,0,-0.002284039,38
2,4519,63.08816,-0.214694,-0.015012,0,0,0,0,-0.002284039,38
2,4555,63.6464,-0.324802,-0.0181386,0,0,0,0,-0.002284039,38
2,4591,64.2047,-0.436136,-0.0204266,0,0,0,0,-0.002284039,38
2,4627,64.763,-0.547471,-0.0221687,0,0,0,0,-0.002284039,38
2,4663,65.3213,-0.658499,-0.0239415,0,0,0,0,-0.002284039,38
2,4699,65.8796,-0.77014,-0.0260271,0,0,0,0,-0.002284039,38
2,4735,66.4379,-0.881167,-0.0283581,0,0,0,0,-0.002284039,38
2,4771,66.9962,-0.992195,-0.0308056,0,0,0,0,-0.002284039,38
2,4807,67.5545,-1.10353,-0.0333819,0,0,0,0,-0.002284039,38
2,4843,68.1128,-1.21456,-0.0362834,0,0,0,0,-0.002284039,38
2,4879,68.67104,-1.32528,-0.0399454,0,0,0,0,-0.002284039,38
2,4915,69.2293,-1.43631,-0.0450736,0,0,0,0,-0.002284039,38
2,4951,69.7876,-1.54028,-0.0892331,0,0,0,0,-0.002284039,38
2,4987,70.3459,-1.64241,-0.145692,0,0,0,0,-0.002284039,38
3,5023,70.7698,-1.59365,-0.117788,0,0,0,0,-0.002284039,38
3,5059,71.14194,-1.52556,-0.0800749,0,0,0,0,-0.002284039,38
3,5095,71.5141,-1.45686,-0.046282,0,0,0,0,-0.002284039,38
3,5131,71.8863,-1.38877,-0.0115273,0,0,0,0,-0.002284039,38
3,5167,72.2584,-1.32037,0.0243709,0,0,0,0,-0.002284039,38
3,5203,72.6306,-1.25106,0.0542563,0,0,0,0,-0.002284039,38
3,5239,73.00278,-1.17039,0.0185803,0,0,0,0,-0.002284039,38
3,5275,73.3749,-1.09586,0.0166419,0,0,0,0,-0.002284039,38
3,5311,73.7471,-1.02287,0.0253217,0,0,0,0,-0.002284039,38
3,5347,74.1193,-0.938521,-0.0307381,0,0,0,0,-0.002284039,38
3,5383,74.4915,-0.865219,-0.0269963,0,0,0,0,-0.002284039,38
3,5419,74.86362,-0.790996,-0.0236287,0,0,0,0,-0.002284039,38
3,5455,75.2358,-0.717386,-0.0207211,0,0,0,0,-0.002284039,38
3,5491,75.608,-0.642856,-0.0180773,0,0,0,0,-0.002284039,38
3,5527,75.9801,-0.56894,-0.0156052,0,0,0,0,-0.002284039,38
3,5563,76.3523,-0.496251,-0.0133454,0,0,0,0,-0.002284039,38
3,5599,76.72446,-0.422335,-0.0108519,0,0,0,0,-0.002284039,38
3,5635,77.0966,-0.347805,-0.0086209,0,0,0,0,-0.002284039,38
3,5671,77.4688,-0.273582,-0.00657272,0,0,0,0,-0.002284039,38
3,5707,77.841,-0.199052,-0.00446871,0,0,0,0,-0.002284039,38
3,5743,78.2131,-0.125136,-0.00113543,0,0,0,0,-0.002284039,38
3,5779,78.5853,-0.0515267,0.00287384,0,0,0,0,-0.002284039,38
3,5815,78.9575,0.0226963,0.00610468,0,0,0,0,-0.002284039,38
3,5851,79.3296,0.0969192,0.00883437,0,0,0,0,-0.002284039,38
3,5887,79.7018,0.170529,0.0111273,0,0,0,0,-0.002284039,38
3,5923,80.074,0.245365,0.0131467,0,0,0,0,-0.002284039,38
3,5959,80.44614,0.319588,0.0151629,0,0,0,0,-0.002284039,38
3,5995,80.8183,0.393504,0.0173835,0,0,0,0,-0.002284039,38
3,5997,80.839,0.397798,0.0175197,0,0,0,0,-0.002284039,38