File: CV02.11.25/secondelectrode-1.1CV_650_FLiNaK_Ni_02_11_25_200mVperS_sh15.csv
Segment,Point,Elapsed Time (s),Potential (V),Current (A),Frequency (Hz),|Z| (ohms),Zre (ohms),Zim (ohms),Phase of Z (deg),ActionId
0,0,0.0055,-0.00122653,-2.00991e-05,0,0,0,0,-0.002284039,38
0,49,0.2805,-0.0558203,-0.000181325,0,0,0,0,-0.002284039,38
0,97,0.5445,-0.10888,-0.00015323,0,0,0,0,-0.002284039,38
0,145,0.8085,-0.161941,-0.000145195,0,0,0,0,-0.002284039,38
0,193,1.0725,-0.214694,-0.000166603,0,0,0,0,-0.002284039,38
0,242,1.342,-0.267754,-0.000196353,0,0,0,0,-0.002284039,38
0,291,1.6115,-0.322348,-0.000238801,0,0,0,0,-0.002284039,38
0,341,1.8865,-0.377555,-0.000279041,0,0,0,0,-0.002284039,38
0,390,2.156,-0.431229,-0.000296892,0,0,0,0,-0.002284039,38
0,439,2.4255,-0.484596,-0.00030732,0,0,0,0,-0.002284039,38
0,487,2.6895,-0.537656,-0.000303087,0,0,0,0,-0.002284039,38
0,535,2.9535,-0.590409,-0.000298977,0,0,0,0,-0.002284039,38
0,583,3.2175,-0.644083,-0.000309835,0,0,0,0,-0.002284039,38
0,631,3.4815,-0.69561,-0.000347621,0,0,0,0,-0.002284039,38
0,679,3.7455,-0.74867,-0.000436872,0,0,0,0,-0.002284039,38
0,729,4.0205,-0.80357,-0.000489871,0,0,0,0,-0.002284039,38
0,778,4.29,-0.857551,-0.000501403,0,0,0,0,-0.002284039,38
0,827,4.5595,-0.911224,-0.000539312,0,0,0,0,-0.002284039,38
0,876,4.829,-0.965818,-0.000613413,0,0,0,0,-0.002284039,38
0,925,5.0985,-1.01949,-0.000621694,0,0,0,0,-0.002284039,38
0,973,5.3625,-1.07225,-0.00059317,0,0,0,0,-0.002284039,38
1,1022,5.848168,-1.03115,-0.000393443,0,0,0,0,-0.002284039,38
1,1070,6.544504,-0.891902,-0.000241807,0,0,0,0,-0.002284039,38
1,1118,7.24084,-0.752044,5.89551e-05,0,0,0,0,-0.002284039,38
1,1166,7.937176,-0.613106,0.000376942,0,0,0,0,-0.002284039,38
1,1214,8.633512,-0.474168,0.000148078,0,0,0,0,-0.002284039,38
1,1263,9.344355,-0.331856,0.000389701,0,0,0,0,-0.002284039,38
1,1311,10.0407,-0.192918,0.000233342,0,0,0,0,-0.002284039,38
1,1359,10.737,-0.0536733,0.000297689,0,0,0,0,-0.002284039,38
1,1407,11.4334,0.0855714,0.00232054,0,0,0,0,-0.002284039,38
1,1455,12.1297,0.223283,0.0159788,0,0,0,0,-0.002284039,38
1,1504,12.8405,0.364674,0.0170099,0,0,0,0,-0.002284039,38
1,1552,13.5369,0.505146,0.0127424,0,0,0,0,-0.002284039,38
1,1600,14.2332,0.642243,0.0208744,0,0,0,0,-0.002284039,38
1,1648,14.92955,0.780261,0.0263338,0,0,0,0,-0.002284039,38
1,1696,15.6259,0.917666,0.0353448,0,0,0,0,-0.002284039,38
1,1745,16.3367,1.05476,0.066543,0,0,0,0,-0.002284039,38
1,1793,17.0331,1.19523,0.0608751,0,0,0,0,-0.002284039,38
1,1841,17.7294,1.33141,0.0778543,0,0,0,0,-0.002284039,38
1,1889,18.4257,1.46943,0.0842584,0,0,0,0,-0.002284039,38
1,1937,19.1221,1.60837,0.0857735,0,0,0,0,-0.002284039,38
1,1986,19.8329,1.74976,0.0913617,0,0,0,0,-0.002284039,38
1,2034,20.5293,1.67922,0.0886811,0,0,0,0,-0.002284039,38
1,2082,21.2256,1.54028,0.0839149,0,0,0,0,-0.002284039,38
1,2130,21.9219,1.40288,0.0756522,0,0,0,0,-0.002284039,38
1,2178,22.61826,1.26946,0.0430922,0,0,0,0,-0.002284039,38
1,2227,23.3291,1.13389,0.0013219,0,0,0,0,-0.002284039,38
1,2275,24.0254,1.00477,-0.0572621,0,0,0,0,-0.002284039,38
1,2323,24.7218,0.8735,-0.104292,0,0,0,0,-0.002284039,38
1,2371,25.4181,0.737936,-0.122216,0,0,0,0,-0.002284039,38
1,2419,26.1144,0.607892,-0.179313,0,0,0,0,-0.002284039,38
1,2468,26.82529,0.443804,-0.0510973,0,0,0,0,-0.002284039,38
1,2516,27.5216,0.299346,-0.0200831,0,0,0,0,-0.002284039,38
1,2564,28.218,0.157954,-0.0121989,0,0,0,0,-0.002284039,38
1,2612,28.9143,0.018096,-0.00707817,0,0,0,0,-0.002284039,38
1,2660,29.6106,-0.121455,-0.00503489,0,0,0,0,-0.002284039,38
1,2709,30.3215,-0.26346,-0.00421353,0,0,0,0,-0.002284039,38
1,2757,31.0178,-0.402705,-0.0050809,0,0,0,0,-0.002284039,38
1,2805,31.7141,-0.541336,-0.01542,0,0,0,0,-0.002284039,38
1,2853,32.4105,-0.663406,-0.106096,0,0,0,0,-0.002284039,38
1,2901,33.1068,-0.79805,-0.133957,0,0,0,0,-0.002284039,38
1,2950,33.8177,-0.934534,-0.165204,0,0,0,0,-0.002284039,38
1,2998,34.514,-1.07439,-0.142894,0,0,0,0,-0.002284039,38
2,3046,35.2103,-0.941895,-0.100195,0,0,0,0,-0.002284039,38
2,3094,35.9067,-0.804797,-0.0901471,0,0,0,0,-0.002284039,38
2,3142,36.603,-0.675367,-0.032333,0,0,0,0,-0.002284039,38
2,3191,37.3139,-0.54563,0.038553,0,0,0,0,-0.002284039,38
2,3239,38.0102,-0.419574,0.113856,0,0,0,0,-0.002284039,38
2,3287,38.7065,-0.289224,0.188563,0,0,0,0,-0.002284039,38
2,3335,39.4029,-0.149979,0.189115,0,0,0,0,-0.002284039,38
2,3383,40.0992,-0.0092009,0.181263,0,0,0,0,-0.002284039,38
2,3432,40.81,0.160101,0.00194084,0,0,0,0,-0.002284039,38
2,3480,41.5064,0.299039,0.00236164,0,0,0,0,-0.002284039,38
2,3528,42.20271,0.438284,0.00264197,0,0,0,0,-0.002284039,38
2,3576,42.899,0.577222,0.00299223,0,0,0,0,-0.002284039,38
2,3624,43.5954,0.716466,0.00367434,0,0,0,0,-0.002284039,38
2,3673,44.3062,0.858778,0.00342468,0,0,0,0,-0.002284039,38
2,3721,45.0026,0.998023,0.00338359,0,0,0,0,-0.002284039,38
2,3769,45.6989,1.13696,0.00352896,0,0,0,0,-0.002284039,38
2,3817,46.3952,1.2759,0.00402828,0,0,0,0,-0.002284039,38
2,3865,47.0916,1.41453,0.00871537,0,0,0,0,-0.002284039,38
2,3914,47.8024,1.55255,0.0323637,0,0,0,0,-0.002284039,38
2,3962,48.4987,1.68535,0.0714135,0,0,0,0,-0.002284039,38
2,4010,49.1951,1.74823,0.0824365,0,0,0,0,-0.002284039,38
2,4058,49.89142,1.62002,0.0139429,0,0,0,0,-0.002284039,38
2,4106,50.5878,1.48967,-0.0388229,0,0,0,0,-0.002284039,38
2,4155,51.2986,1.34889,-0.042853,0,0,0,0,-0.002284039,38
2,4203,51.9949,1.20321,-0.0105335,0,0,0,0,-0.002284039,38
2,4251,52.6913,1.06335,-0.00514715,0,0,0,0,-0.002284039,38
2,4299,53.3876,0.9238,-0.00240212,0,0,0,0,-0.002284039,38
2,4347,54.0839,0.784555,-0.00107629,0,0,0,0,-0.002284039,38
2,4396,54.7948,0.641937,-0.000949195,0,0,0,0,-0.002284039,38
2,4444,55.4911,0.502999,9.05765e-05,0,0,0,0,-0.002284039,38
2,4492,56.1875,0.363754,-0.000788971,0,0,0,0,-0.002284039,38
2,4540,56.8838,0.225123,-0.00124609,0,0,0,0,-0.002284039,38
2,4588,57.58013,0.0858781,-0.00136779,0,0,0,0,-0.002284039,38
2,4637,58.291,-0.0567404,-0.00136736,0,0,0,0,-0.002284039,38
2,4685,58.9873,-0.195985,-0.00136951,0,0,0,0,-0.002284039,38
2,4733,59.6836,-0.334923,-0.00174393,0,0,0,0,-0.002284039,38
2,4781,60.38,-0.474168,-0.00201383,0,0,0,0,-0.002284039,38
2,4829,61.0763,-0.613412,-0.00254566,0,0,0,0,-0.002284039,38
2,4878,61.78716,-0.755111,-0.00405466,0,0,0,0,-0.002284039,38
2,4926,62.4835,-0.894049,-0.00822218,0,0,0,0,-0.002284039,38
2,4974,63.1798,-1.02195,-0.0708124,0,0,0,0,-0.002284039,38
3,5022,63.8762,-1.00446,-0.131651,0,0,0,0,-0.002284039,38
3,5070,64.5725,-0.872273,-0.0911286,0,0,0,0,-0.002284039,38
3,5119,65.2833,-0.740389,-0.0328483,0,0,0,0,-0.002284039,38
3,5167,65.9797,-0.612799,0.0343572,0,0,0,0,-0.002284039,38
3,5215,66.676,-0.481529,0.0840253,0,0,0,0,-0.002284039,38
3,5263,67.3724,-0.337377,0.0552685,0,0,0,0,-0.002284039,38
3,5311,68.0687,-0.201812,0.0728244,0,0,0,0,-0.002284039,38
3,5360,68.7795,-0.0466191,0.000754314,0,0,0,0,-0.002284039,38
3,5408,69.47587,0.0923189,0.00163198,0,0,0,0,-0.002284039,38
3,5456,70.1722,0.231257,0.00244322,0,0,0,0,-0.002284039,38
3,5504,70.8685,0.370808,0.00319649,0,0,0,0,-0.002284039,38
3,5552,71.5649,0.50944,0.00261375,0,0,0,0,-0.002284039,38
3,5602,72.2902,0.654512,0.00278919,0,0,0,0,-0.002284039,38
3,5650,72.9866,0.79345,0.00308669,0,0,0,0,-0.002284039,38
3,5698,73.6829,0.932694,0.0064574,0,0,0,0,-0.002284039,38
3,5746,74.3792,1.07194,0.00793572,0,0,0,0,-0.002284039,38
3,5794,75.0756,1.21118,0.00929627,0,0,0,0,-0.002284039,38
3,5844,75.8009,1.35564,0.0130835,0,0,0,0,-0.002284039,38
3,5892,76.4973,1.49243,0.0238434,0,0,0,0,-0.002284039,38
3,5940,77.1936,1.62493,0.0594458,0,0,0,0,-0.002284039,38
3,5988,77.88993,1.75773,0.100888,0,0,0,0,-0.002284039,38
3,6036,78.5863,1.67768,0.0414299,0,0,0,0,-0.002284039,38
3,6085,79.2971,1.54427,-0.0171774,0,0,0,0,-0.002284039,38
3,6133,79.9934,1.41269,-0.0536,0,0,0,0,-0.002284039,38
3,6181,80.6898,1.267,-0.019709,0,0,0,0,-0.002284039,38
3,6229,81.3861,1.12561,-0.0085933,0,0,0,0,-0.002284039,38
3,6277,82.0825,0.986061,-0.00360319,0,0,0,0,-0.002284039,38
3,6326,82.7933,0.844363,-0.00253217,0,0,0,0,-0.002284039,38
3,6374,83.4896,0.704198,-0.00159242,0,0,0,0,-0.002284039,38
3,6422,84.186,0.56526,-0.00103446,0,0,0,0,-0.002284039,38
3,6470,84.8823,0.426015,-0.000804797,0,0,0,0,-0.002284039,38
3,6518,85.57864,0.286464,-0.00068647,0,0,0,0,-0.002284039,38
3,6567,86.2895,0.144766,-0.000728734,0,0,0,0,-0.002284039,38
3,6615,86.9858,0.0052143,-0.00113764,0,0,0,0,-0.002284039,38
3,6663,87.6822,-0.13403,-0.00130577,0,0,0,0,-0.002284039,38
3,6711,88.3785,-0.272968,-0.00144765,0,0,0,0,-0.002284039,38
3,6759,89.0748,-0.41252,-0.00147348,0,0,0,0,-0.002284039,38
3,6808,89.78567,-0.554525,-0.00188563,0,0,0,0,-0.002284039,38
3,6856,90.482,-0.693156,-0.00243709,0,0,0,0,-0.002284039,38
3,6904,91.1783,-0.833014,-0.00409698,0,0,0,0,-0.002284039,38
3,6952,91.8747,-0.971032,-0.00875462,0,0,0,0,-0.002284039,38
4,7000,92.5356,-1.07102,-0.0492325,0,0,0,0,-0.002284039,38
4,7048,92.8924,-1.00201,-0.0333022,0,0,0,0,-0.002284039,38
4,7096,93.2491,-0.933307,-0.018341,0,0,0,0,-0.002284039,38
4,7144,93.6058,-0.864605,-0.00136852,0,0,0,0,-0.002284039,38
4,7194,93.9774,-0.793449,0.0190403,0,0,0,0,-0.002284039,38
4,7242,94.3342,-0.72536,0.0372464,0,0,0,0,-0.002284039,38
4,7290,94.6909,-0.647763,-0.00202794,0,0,0,0,-0.002284039,38
4,7338,95.0477,-0.576301,-0.00124879,0,0,0,0,-0.002284039,38
4,7386,95.4044,-0.505452,-0.000927541,0,0,0,0,-0.002284039,38
4,7434,95.7611,-0.433989,-0.000666964,0,0,0,0,-0.002284039,38
4,7482,96.1179,-0.362527,-0.000401908,0,0,0,0,-0.002284039,38
4,7530,96.4746,-0.290757,-0.000184024,0,0,0,0,-0.002284039,38
4,7579,96.8388,-0.217761,-2.45426e-06,0,0,0,0,-0.002284039,38
4,7628,97.2029,-0.145379,0.000113371,0,0,0,0,-0.002284039,38
4,7676,97.5597,-0.0742226,0.000280023,0,0,0,0,-0.002284039,38
4,7725,97.9238,-0.00183994,0.000723643,0,0,0,0,-0.002284039,38
4,7774,98.288,0.0708495,0.00111862,0,0,0,0,-0.002284039,38
4,7822,98.6447,0.142619,0.000933737,0,0,0,0,-0.002284039,38
4,7871,99.0089,0.215615,0.000808294,0,0,0,0,-0.002284039,38
4,7920,99.3731,0.288611,0.000909384,0,0,0,0,-0.002284039,38
4,7969,99.7372,0.360994,0.00100679,0,0,0,0,-0.002284039,38
4,7995,99.9305,0.399639,0.00105323,0,0,0,0,-0.002284039,38