File: CV02.11.25/secondelectrode-1.2CV_650_FLiNaK_Ni_02_11_25_200mVperS_sh15.csv
Segment,Point,Elapsed Time (s),Potential (V),Current (A),Frequency (Hz),|Z| (ohms),Zre (ohms),Zim (ohms),Phase of Z (deg),ActionId
0,0,0.006,-0.00122683,6.37949e-06,0,0,0,0,-0.002284039,38
0,19,0.126,-0.0251499,-0.000264013,0,0,0,0,-0.002284039,38
0,37,0.234,-0.0472328,-0.000292107,0,0,0,0,-0.002284039,38
0,55,0.342,-0.0693156,-0.00029088,0,0,0,0,-0.002284039,38
0,73,0.45,-0.0901717,-0.000282661,0,0,0,0,-0.002284039,38
0,91,0.558,-0.111641,-0.000287384,0,0,0,0,-0.002284039,38
0,109,0.666,-0.133417,-0.000292046,0,0,0,0,-0.002284039,38
0,128,0.78,-0.156114,-0.000308056,0,0,0,0,-0.002284039,38
0,147,0.894,-0.178503,-0.000334801,0,0,0,0,-0.002284039,38
0,165,1.002,-0.200586,-0.000361729,0,0,0,0,-0.002284039,38
0,183,1.11,-0.222055,-0.000393811,0,0,0,0,-0.002284039,38
0,201,1.218,-0.243832,-0.000429634,0,0,0,0,-0.002284039,38
0,219,1.326,-0.265301,-0.000464967,0,0,0,0,-0.002284039,38
0,237,1.434,-0.286464,-0.000496742,0,0,0,0,-0.002284039,38
0,255,1.542,-0.30824,-0.000536368,0,0,0,0,-0.002284039,38
0,273,1.65,-0.330016,-0.000575258,0,0,0,0,-0.002284039,38
0,292,1.764,-0.353019,-0.000618381,0,0,0,0,-0.002284039,38
0,310,1.872,-0.374488,-0.000650892,0,0,0,0,-0.002284039,38
0,328,1.98,-0.395958,-0.000679661,0,0,0,0,-0.002284039,38
0,346,2.088,-0.417734,-0.000703155,0,0,0,0,-0.002284039,38
0,364,2.196,-0.439203,-0.000718858,0,0,0,0,-0.002284039,38
0,382,2.304,-0.460673,-0.000729164,0,0,0,0,-0.002284039,38
0,400,2.412,-0.482449,-0.000737751,0,0,0,0,-0.002284039,38
0,419,2.526,-0.505145,-0.000744622,0,0,0,0,-0.002284039,38
0,438,2.64,-0.527842,-0.000752596,0,0,0,0,-0.002284039,38
0,456,2.748,-0.549924,-0.00076057,0,0,0,0,-0.002284039,38
0,474,2.856,-0.571087,-0.000772716,0,0,0,0,-0.002284039,38
0,492,2.964,-0.592557,-0.000778911,0,0,0,0,-0.002284039,38
0,510,3.072,-0.61464,-0.000807864,0,0,0,0,-0.002284039,38
0,528,3.18,-0.636416,-0.000829334,0,0,0,0,-0.002284039,38
0,546,3.288,-0.657272,-0.000865648,0,0,0,0,-0.002284039,38
0,564,3.396,-0.678741,-0.00091055,0,0,0,0,-0.002284039,38
0,583,3.51,-0.702051,-0.000964898,0,0,0,0,-0.002284039,38
0,601,3.618,-0.72352,-0.00103777,0,0,0,0,-0.002284039,38
0,619,3.726,-0.745296,-0.00110954,0,0,0,0,-0.002284039,38
0,637,3.834,-0.766459,-0.00117143,0,0,0,0,-0.002284039,38
0,655,3.942,-0.788542,-0.00122885,0,0,0,0,-0.002284039,38
0,673,4.05,-0.809705,-0.00126105,0,0,0,0,-0.002284039,38
0,691,4.158,-0.831481,-0.00128314,0,0,0,0,-0.002284039,38
0,710,4.272,-0.85387,-0.00129602,0,0,0,0,-0.002284039,38
0,729,4.386,-0.87718,-0.0013243,0,0,0,0,-0.002284039,38
0,747,4.494,-0.898343,-0.00135374,0,0,0,0,-0.002284039,38
0,765,4.602,-0.919812,-0.00139171,0,0,0,0,-0.002284039,38
0,783,4.71,-0.942202,-0.00143827,0,0,0,0,-0.002284039,38
0,801,4.818,-0.963365,-0.00147477,0,0,0,0,-0.002284039,38
0,819,4.926,-0.985141,-0.00150574,0,0,0,0,-0.002284039,38
0,837,5.034,-1.00661,-0.00152206,0,0,0,0,-0.002284039,38
0,855,5.142,-1.02808,-0.00152488,0,0,0,0,-0.002284039,38
0,874,5.256,-1.05078,-0.00152488,0,0,0,0,-0.002284039,38
0,892,5.364,-1.07225,-0.00152715,0,0,0,0,-0.002284039,38
0,910,5.472,-1.09371,-0.00152666,0,0,0,0,-0.002284039,38
0,928,5.58,-1.11549,-0.00154482,0,0,0,0,-0.002284039,38
0,946,5.688,-1.13696,-0.00156359,0,0,0,0,-0.002284039,38
0,964,5.796,-1.15843,-0.00157708,0,0,0,0,-0.002284039,38
0,982,5.904,-1.18051,-0.001608,0,0,0,0,-0.002284039,38
1,1001,6.045024,-1.19155,-0.00142152,0,0,0,0,-0.002284039,38
1,1019,6.315168,-1.13727,-0.00122768,0,0,0,0,-0.002284039,38
1,1037,6.585312,-1.08329,-0.00110359,0,0,0,0,-0.002284039,38
1,1055,6.855456,-1.02992,-0.00101612,0,0,0,0,-0.002284039,38
1,1073,7.1256,-0.975019,-0.000943429,0,0,0,0,-0.002284039,38
1,1091,7.395744,-0.921346,-0.000817986,0,0,0,0,-0.002284039,38
1,1109,7.665888,-0.866752,-0.000645494,0,0,0,0,-0.002284039,38
1,1127,7.936032,-0.813385,-0.000385407,0,0,0,0,-0.002284039,38
1,1145,8.206176,-0.759405,-0.000100606,0,0,0,0,-0.002284039,38
1,1163,8.47632,-0.705731,0.000131841,0,0,0,0,-0.002284039,38
1,1181,8.746464,-0.651138,0.000331979,0,0,0,0,-0.002284039,38
1,1199,9.016608,-0.597464,0.000366514,0,0,0,0,-0.002284039,38
1,1217,9.286752,-0.543484,0.00017789,0,0,0,0,-0.002284039,38
1,1235,9.556896,-0.489503,5.93538e-05,0,0,0,0,-0.002284039,38
1,1253,9.82704,-0.435523,0.000159021,0,0,0,0,-0.002284039,38
1,1271,10.0972,-0.381849,0.000308915,0,0,0,0,-0.002284039,38
1,1289,10.3673,-0.327562,0.000354553,0,0,0,0,-0.002284039,38
1,1307,10.6375,-0.272969,0.000379028,0,0,0,0,-0.002284039,38
1,1325,10.9076,-0.219295,0.000417243,0,0,0,0,-0.002284039,38
1,1343,11.17776,-0.164701,0.000428653,0,0,0,0,-0.002284039,38
1,1361,11.4479,-0.111334,0.000468034,0,0,0,0,-0.002284039,38
1,1379,11.718,-0.0570474,0.000600408,0,0,0,0,-0.002284039,38
1,1397,11.9882,-0.00368048,0.00100035,0,0,0,0,-0.002284039,38
1,1415,12.2583,0.0506065,0.00226717,0,0,0,0,-0.002284039,38
1,1433,12.52848,0.103667,0.00512261,0,0,0,0,-0.002284039,38
1,1451,12.7986,0.157647,0.00824243,0,0,0,0,-0.002284039,38
1,1469,13.0688,0.211934,0.00693402,0,0,0,0,-0.002284039,38
1,1487,13.3389,0.266221,0.00493245,0,0,0,0,-0.002284039,38
1,1505,13.6091,0.319895,0.0051907,0,0,0,0,-0.002284039,38
1,1523,13.8792,0.374182,0.00560782,0,0,0,0,-0.002284039,38
1,1541,14.1493,0.428162,0.00627337,0,0,0,0,-0.002284039,38
1,1559,14.4195,0.482142,0.00698064,0,0,0,0,-0.002284039,38
1,1577,14.6896,0.536429,0.00765171,0,0,0,0,-0.002284039,38
1,1595,14.9598,0.590103,0.00800504,0,0,0,0,-0.002284039,38
1,1613,15.22992,0.644083,0.00779463,0,0,0,0,-0.002284039,38
1,1631,15.5001,0.698064,0.00748793,0,0,0,0,-0.002284039,38
1,1649,15.7702,0.752351,0.00794063,0,0,0,0,-0.002284039,38
1,1667,16.0404,0.805411,0.00793633,0,0,0,0,-0.002284039,38
1,1685,16.3105,0.859391,0.00924168,0,0,0,0,-0.002284039,38
1,1703,16.58064,0.913678,0.0113837,0,0,0,0,-0.002284039,38
1,1721,16.8508,0.967352,0.0145183,0,0,0,0,-0.002284039,38
1,1739,17.1209,1.01949,0.020764,0,0,0,0,-0.002284039,38
1,1757,17.3911,1.07255,0.0290942,0,0,0,0,-0.002284039,38
1,1775,17.6612,1.12439,0.0389088,0,0,0,0,-0.002284039,38
1,1793,17.93136,1.17653,0.0487356,0,0,0,0,-0.002284039,38
1,1811,18.2015,1.22897,0.0606481,0,0,0,0,-0.002284039,38
1,1829,18.4716,1.28019,0.0741677,0,0,0,0,-0.002284039,38
1,1847,18.7418,1.33264,0.0878959,0,0,0,0,-0.002284039,38
1,1865,19.0119,1.38355,0.103679,0,0,0,0,-0.002284039,38
1,1883,19.28208,1.43784,0.102452,0,0,0,0,-0.002284039,38
1,1901,19.5522,1.50439,0.0308056,0,0,0,0,-0.002284039,38
1,1919,19.8224,1.55408,0.0539926,0,0,0,0,-0.002284039,38
1,1937,20.0925,1.60438,0.0778237,0,0,0,0,-0.002284039,38
1,1955,20.3627,1.65591,0.0907421,0,0,0,0,-0.002284039,38
1,1973,20.6328,1.71173,0.0822034,0,0,0,0,-0.002284039,38
1,1991,20.9029,1.7654,0.0818354,0,0,0,0,-0.002284039,38
1,2009,21.1731,1.75099,0.0852092,0,0,0,0,-0.002284039,38
1,2027,21.4432,1.69639,0.0873745,0,0,0,0,-0.002284039,38
1,2045,21.7134,1.64517,0.0698738,0,0,0,0,-0.002284039,38
1,2063,21.98352,1.59395,0.0540785,0,0,0,0,-0.002284039,38
1,2081,22.2537,1.54243,0.0397246,0,0,0,0,-0.002284039,38
1,2099,22.5238,1.49151,0.0197826,0,0,0,0,-0.002284039,38
1,2117,22.794,1.44091,-0.00466746,0,0,0,0,-0.002284039,38
1,2135,23.0641,1.39153,-0.0277876,0,0,0,0,-0.002284039,38
1,2153,23.33424,1.34184,-0.0501772,0,0,0,0,-0.002284039,38
1,2171,23.6044,1.29185,-0.0769526,0,0,0,0,-0.002284039,38
1,2189,23.8745,1.24216,-0.101176,0,0,0,0,-0.002284039,38
1,2207,24.1447,1.18971,-0.113107,0,0,0,0,-0.002284039,38
1,2225,24.4148,1.13052,-0.0780874,0,0,0,0,-0.002284039,38
1,2243,24.68496,1.07531,-0.0695181,0,0,0,0,-0.002284039,38
1,2261,24.9551,1.01581,-0.0396326,0,0,0,0,-0.002284039,38
1,2279,25.2252,0.959684,-0.0269656,0,0,0,0,-0.002284039,38
1,2297,25.4954,0.904477,-0.0191201,0,0,0,0,-0.002284039,38
1,2315,25.7655,0.849577,-0.0146544,0,0,0,0,-0.002284039,38
1,2333,26.03568,0.794369,-0.0114027,0,0,0,0,-0.002284039,38
1,2351,26.3058,0.739162,-0.00899631,0,0,0,0,-0.002284039,38
1,2369,26.576,0.685795,-0.00720453,0,0,0,0,-0.002284039,38
1,2387,26.8461,0.631815,-0.00585625,0,0,0,0,-0.002284039,38
1,2405,27.1163,0.577221,-0.00473923,0,0,0,0,-0.002284039,38
1,2423,27.3864,0.522934,-0.00380316,0,0,0,0,-0.002284039,38
1,2441,27.6565,0.468954,-0.0029407,0,0,0,0,-0.002284039,38
1,2459,27.9267,0.414974,-0.00222791,0,0,0,0,-0.002284039,38
1,2477,28.1968,0.360993,-0.00173841,0,0,0,0,-0.002284039,38
1,2495,28.467,0.307013,-0.00140472,0,0,0,0,-0.002284039,38
1,2513,28.73712,0.253033,-0.00118315,0,0,0,0,-0.002284039,38
1,2531,29.0073,0.198746,-0.00106317,0,0,0,0,-0.002284039,38
1,2549,29.2774,0.143845,-0.00100244,0,0,0,0,-0.002284039,38
1,2567,29.5476,0.0907851,-0.000969192,0,0,0,0,-0.002284039,38
1,2585,29.8177,0.0364981,-0.000992502,0,0,0,0,-0.002284039,38
1,2603,30.08784,-0.0171756,-0.00118689,0,0,0,0,-0.002284039,38
1,2621,30.358,-0.0714626,-0.00133883,0,0,0,0,-0.002284039,38
1,2639,30.6281,-0.124829,-0.00148526,0,0,0,0,-0.002284039,38
1,2657,30.8983,-0.179117,-0.00159076,0,0,0,0,-0.002284039,38
1,2675,31.1684,-0.232483,-0.00166732,0,0,0,0,-0.002284039,38
1,2693,31.43856,-0.287077,-0.00175068,0,0,0,0,-0.002284039,38
1,2711,31.7087,-0.341364,-0.00185803,0,0,0,0,-0.002284039,38
1,2729,31.9788,-0.394731,-0.00199666,0,0,0,0,-0.002284039,38
1,2747,32.249,-0.449325,-0.00217393,0,0,0,0,-0.002284039,38
1,2765,32.5191,-0.502998,-0.00236287,0,0,0,0,-0.002284039,38
1,2783,32.78928,-0.556979,-0.00259596,0,0,0,0,-0.002284039,38
1,2801,33.0594,-0.610959,-0.00291616,0,0,0,0,-0.002284039,38
1,2819,33.3296,-0.665246,-0.00339401,0,0,0,0,-0.002284039,38
1,2837,33.5997,-0.71892,-0.00413133,0,0,0,0,-0.002284039,38
1,2855,33.8699,-0.7729,-0.00526124,0,0,0,0,-0.002284039,38
1,2873,34.14,-0.82688,-0.00699597,0,0,0,0,-0.002284039,38
1,2891,34.4101,-0.880247,-0.00987656,0,0,0,0,-0.002284039,38
1,2909,34.6803,-0.933614,-0.0174148,0,0,0,0,-0.002284039,38
1,2927,34.9504,-0.972566,-0.0981644,0,0,0,0,-0.002284039,38
1,2945,35.2206,-1.01458,-0.170302,0,0,0,0,-0.002284039,38
1,2963,35.49072,-0.974406,-0.127529,0,0,0,0,-0.002284039,38
1,2981,35.7609,-0.709412,-6.15376e-10,0,0,0,0,-0.002284039,38
2,2999,36.031,-0.654205,-5.03366e-10,0,0,0,0,-0.002284039,38
2,3007,36.1511,-0.646537,1.69977e-09,0,0,0,0,-0.002284039,38